SpectraSuite Data File
++++++++++++++++++++++++++++++++++++
Date: Mon Jun 15 06:47:54 PDT 2015
User: introlabs
Dark Spectrum Present: Yes
Reference Spectrum Present: Yes
Number of Sampled Component Spectra: 1
Spectrometers: USB4H08886
Integration Time (usec): 44366 (USB4H08886)
Spectra Averaged: 20 (USB4H08886)
Boxcar Smoothing: 5 (USB4H08886)
Correct for Electrical Dark: Yes (USB4H08886)
Strobe/Lamp Enabled: No (USB4H08886)
Correct for Detector Non-linearity: Yes (USB4H08886)
Correct for Stray Light: Yes (USB4H08886)
Number of Pixels in Processed Spectrum: 3648
>>>>>Begin Processed Spectral Data<<<<<
178.14	-0.517
178.36	-0.517
178.57	-0.517
178.79	-0.000
179.01	-0.109
179.22	-0.000
179.44	-0.000
179.65	1.017
179.87	-0.000
180.08	0.204
180.30	0.278
180.52	0.957
180.73	0.360
180.95	0.124
181.16	0.044
181.38	0.043
181.59	0.047
181.81	0.022
182.03	0.007
182.24	0.010
182.46	0.017
182.67	0.001
182.89	-0.001
183.10	0.011
183.32	0.014
183.54	0.019
183.75	0.015
183.97	0.016
184.18	0.015
184.40	0.024
184.61	0.036
184.83	0.029
185.04	0.028
185.26	0.019
185.48	0.006
185.69	0.001
185.91	-0.016
186.12	-0.007
186.34	-0.016
186.55	-0.015
186.77	-0.025
186.98	-0.038
187.20	-0.038
187.42	-0.033
187.63	-0.021
187.85	-0.017
188.06	-0.014
188.28	-0.002
188.49	-0.000
188.71	0.007
188.92	0.020
189.14	0.027
189.36	0.033
189.57	0.034
189.79	0.020
190.00	0.018
190.22	0.019
190.43	0.018
190.65	0.019
190.86	0.016
191.08	0.014
191.29	0.009
191.51	0.010
191.72	0.008
191.94	0.005
192.16	0.013
192.37	0.012
192.59	0.012
192.80	0.012
193.02	0.007
193.23	0.005
193.45	0.008
193.66	-0.007
193.88	-0.016
194.09	-0.018
194.31	-0.016
194.52	-0.013
194.74	-0.015
194.95	-0.022
195.17	-0.024
195.38	-0.020
195.60	-0.014
195.81	-0.009
196.03	0.003
196.25	0.006
196.46	0.005
196.68	0.011
196.89	0.006
197.11	0.006
197.32	0.020
197.54	0.016
197.75	0.013
197.97	0.010
198.18	-0.003
198.40	-0.005
198.61	0.007
198.83	0.013
199.04	0.007
199.26	0.016
199.47	0.023
199.69	0.024
199.90	0.016
200.12	0.016
200.33	0.022
200.55	0.028
200.76	0.033
200.98	0.024
201.19	0.018
201.41	0.024
201.62	0.019
201.84	0.013
202.05	0.004
202.27	0.012
202.48	0.011
202.70	-0.003
202.91	-0.004
203.13	-0.005
203.34	-0.007
203.56	-0.010
203.77	-0.009
203.99	-0.006
204.20	-0.009
204.42	-0.010
204.63	-0.008
204.85	-0.007
205.06	0.001
205.28	-0.002
205.49	-0.001
205.71	0.008
205.92	0.011
206.14	0.005
206.35	0.005
206.56	0.011
206.78	0.011
206.99	0.010
207.21	0.009
207.42	0.007
207.64	0.007
207.85	0.002
208.07	-0.004
208.28	-0.011
208.50	-0.010
208.71	-0.008
208.93	-0.009
209.14	-0.010
209.36	-0.009
209.57	-0.011
209.79	-0.008
210.00	-0.003
210.22	-0.004
210.43	-0.004
210.64	0.001
210.86	-0.001
211.07	-0.001
211.29	-0.003
211.50	0.003
211.72	-0.004
211.93	-0.002
212.15	-0.004
212.36	-0.009
212.58	-0.008
212.79	-0.001
213.01	-0.003
213.22	-0.001
213.43	0.000
213.65	0.008
213.86	0.006
214.08	0.011
214.29	0.008
214.51	0.010
214.72	0.011
214.94	0.014
215.15	0.006
215.36	0.008
215.58	0.006
215.79	0.004
216.01	-0.003
216.22	-0.005
216.44	-0.008
216.65	-0.004
216.87	-0.005
217.08	-0.001
217.29	0.001
217.51	0.002
217.72	0.003
217.94	0.010
218.15	0.002
218.37	0.001
218.58	0.008
218.80	0.008
219.01	0.007
219.22	0.006
219.44	0.004
219.65	0.001
219.87	0.012
220.08	0.013
220.30	0.008
220.51	0.015
220.72	0.012
220.94	0.004
221.15	0.009
221.37	0.007
221.58	0.010
221.79	0.010
222.01	0.010
222.22	-0.007
222.44	-0.009
222.65	-0.014
222.87	-0.011
223.08	-0.007
223.29	0.000
223.51	-0.004
223.72	-0.001
223.94	-0.006
224.15	-0.008
224.36	-0.009
224.58	0.001
224.79	0.004
225.01	0.011
225.22	0.010
225.44	0.006
225.65	0.001
225.86	-0.002
226.08	-0.006
226.29	-0.000
226.51	0.004
226.72	0.003
226.93	-0.003
227.15	-0.005
227.36	-0.010
227.58	-0.010
227.79	-0.009
228.00	-0.008
228.22	-0.005
228.43	-0.003
228.65	-0.007
228.86	-0.014
229.07	-0.015
229.29	-0.013
229.50	-0.014
229.72	-0.016
229.93	-0.019
230.14	-0.016
230.36	-0.013
230.57	-0.011
230.78	-0.012
231.00	-0.008
231.21	-0.007
231.43	-0.005
231.64	-0.001
231.85	0.001
232.07	0.005
232.28	0.007
232.50	0.007
232.71	0.008
232.92	0.006
233.14	0.008
233.35	0.007
233.56	0.009
233.78	0.007
233.99	0.004
234.21	0.005
234.42	0.003
234.63	0.002
234.85	0.000
235.06	-0.001
235.27	-0.001
235.49	-0.002
235.70	-0.001
235.91	-0.002
236.13	-0.003
236.34	-0.002
236.56	-0.002
236.77	-0.001
236.98	0.001
237.20	0.000
237.41	0.001
237.62	0.001
237.84	0.001
238.05	0.001
238.26	0.002
238.48	0.002
238.69	0.003
238.91	0.003
239.12	0.001
239.33	0.001
239.55	0.001
239.76	0.001
239.97	0.003
240.19	0.005
240.40	0.005
240.61	0.005
240.83	0.005
241.04	0.005
241.25	0.005
241.47	0.006
241.68	0.005
241.89	0.006
242.11	0.007
242.32	0.005
242.53	0.005
242.75	0.004
242.96	0.005
243.17	0.005
243.39	0.005
243.60	0.006
243.81	0.006
244.03	0.006
244.24	0.006
244.45	0.006
244.67	0.007
244.88	0.006
245.09	0.007
245.31	0.007
245.52	0.006
245.73	0.006
245.95	0.006
246.16	0.006
246.37	0.006
246.59	0.006
246.80	0.006
247.01	0.005
247.23	0.006
247.44	0.006
247.65	0.007
247.87	0.007
248.08	0.007
248.29	0.007
248.51	0.007
248.72	0.007
248.93	0.008
249.15	0.007
249.36	0.008
249.57	0.008
249.78	0.008
250.00	0.008
250.21	0.008
250.42	0.008
250.64	0.007
250.85	0.007
251.06	0.007
251.28	0.007
251.49	0.007
251.70	0.007
251.92	0.006
252.13	0.006
252.34	0.006
252.55	0.006
252.77	0.006
252.98	0.006
253.19	0.006
253.41	0.006
253.62	0.006
253.83	0.006
254.05	0.005
254.26	0.005
254.47	0.006
254.68	0.005
254.90	0.005
255.11	0.005
255.32	0.005
255.54	0.005
255.75	0.005
255.96	0.005
256.17	0.005
256.39	0.005
256.60	0.006
256.81	0.006
257.03	0.006
257.24	0.006
257.45	0.006
257.66	0.006
257.88	0.006
258.09	0.006
258.30	0.006
258.51	0.006
258.73	0.006
258.94	0.005
259.15	0.005
259.37	0.005
259.58	0.005
259.79	0.005
260.00	0.005
260.22	0.005
260.43	0.005
260.64	0.005
260.85	0.005
261.07	0.004
261.28	0.004
261.49	0.004
261.71	0.004
261.92	0.004
262.13	0.003
262.34	0.003
262.56	0.003
262.77	0.003
262.98	0.002
263.19	0.002
263.41	0.002
263.62	0.002
263.83	0.002
264.04	0.002
264.26	0.002
264.47	0.002
264.68	0.002
264.89	0.002
265.11	0.002
265.32	0.002
265.53	0.002
265.74	0.002
265.96	0.002
266.17	0.002
266.38	0.002
266.59	0.002
266.81	0.002
267.02	0.002
267.23	0.002
267.44	0.002
267.65	0.002
267.87	0.002
268.08	0.002
268.29	0.002
268.50	0.002
268.72	0.002
268.93	0.002
269.14	0.003
269.35	0.002
269.57	0.002
269.78	0.002
269.99	0.002
270.20	0.001
270.41	0.001
270.63	0.001
270.84	0.001
271.05	0.001
271.26	0.001
271.48	0.001
271.69	0.001
271.90	0.001
272.11	0.001
272.32	0.001
272.54	0.001
272.75	0.001
272.96	0.001
273.17	0.001
273.39	0.001
273.60	0.002
273.81	0.001
274.02	0.002
274.23	0.002
274.45	0.002
274.66	0.002
274.87	0.002
275.08	0.002
275.29	0.002
275.51	0.001
275.72	0.001
275.93	0.001
276.14	0.001
276.35	0.001
276.57	0.001
276.78	0.000
276.99	0.001
277.20	0.001
277.41	0.001
277.63	0.001
277.84	0.001
278.05	0.001
278.26	0.001
278.47	0.001
278.69	0.001
278.90	0.001
279.11	0.001
279.32	0.001
279.53	0.001
279.74	0.001
279.96	0.001
280.17	0.001
280.38	0.001
280.59	0.001
280.80	0.001
281.02	0.001
281.23	0.001
281.44	0.001
281.65	0.001
281.86	0.001
282.07	0.001
282.29	0.002
282.50	0.001
282.71	0.002
282.92	0.002
283.13	0.002
283.35	0.002
283.56	0.002
283.77	0.002
283.98	0.002
284.19	0.002
284.40	0.002
284.62	0.002
284.83	0.002
285.04	0.002
285.25	0.002
285.46	0.002
285.67	0.002
285.88	0.002
286.10	0.002
286.31	0.002
286.52	0.002
286.73	0.002
286.94	0.002
287.15	0.002
287.37	0.002
287.58	0.002
287.79	0.003
288.00	0.003
288.21	0.003
288.42	0.004
288.63	0.003
288.85	0.004
289.06	0.004
289.27	0.004
289.48	0.004
289.69	0.004
289.90	0.004
290.11	0.004
290.33	0.004
290.54	0.004
290.75	0.004
290.96	0.004
291.17	0.004
291.38	0.004
291.59	0.004
291.81	0.004
292.02	0.004
292.23	0.004
292.44	0.004
292.65	0.004
292.86	0.004
293.07	0.004
293.28	0.004
293.50	0.004
293.71	0.004
293.92	0.004
294.13	0.004
294.34	0.004
294.55	0.004
294.76	0.004
294.97	0.004
295.19	0.004
295.40	0.004
295.61	0.004
295.82	0.004
296.03	0.004
296.24	0.004
296.45	0.004
296.66	0.004
296.87	0.004
297.09	0.004
297.30	0.004
297.51	0.004
297.72	0.004
297.93	0.004
298.14	0.004
298.35	0.004
298.56	0.004
298.77	0.004
298.99	0.004
299.20	0.004
299.41	0.004
299.62	0.004
299.83	0.004
300.04	0.004
300.25	0.004
300.46	0.004
300.67	0.004
300.88	0.004
301.10	0.004
301.31	0.004
301.52	0.004
301.73	0.004
301.94	0.004
302.15	0.004
302.36	0.004
302.57	0.004
302.78	0.004
302.99	0.004
303.20	0.004
303.41	0.004
303.63	0.004
303.84	0.004
304.05	0.004
304.26	0.004
304.47	0.004
304.68	0.004
304.89	0.004
305.10	0.004
305.31	0.004
305.52	0.004
305.73	0.004
305.94	0.004
306.15	0.004
306.37	0.004
306.58	0.004
306.79	0.004
307.00	0.004
307.21	0.004
307.42	0.004
307.63	0.004
307.84	0.004
308.05	0.004
308.26	0.004
308.47	0.004
308.68	0.004
308.89	0.004
309.10	0.004
309.31	0.004
309.52	0.004
309.73	0.004
309.95	0.003
310.16	0.004
310.37	0.004
310.58	0.003
310.79	0.003
311.00	0.003
311.21	0.003
311.42	0.003
311.63	0.004
311.84	0.004
312.05	0.004
312.26	0.003
312.47	0.003
312.68	0.003
312.89	0.003
313.10	0.003
313.31	0.003
313.52	0.003
313.73	0.003
313.94	0.003
314.15	0.003
314.36	0.003
314.57	0.003
314.78	0.003
314.99	0.003
315.21	0.003
315.42	0.003
315.63	0.003
315.84	0.003
316.05	0.004
316.26	0.004
316.47	0.003
316.68	0.003
316.89	0.004
317.10	0.004
317.31	0.004
317.52	0.003
317.73	0.003
317.94	0.003
318.15	0.003
318.36	0.003
318.57	0.003
318.78	0.003
318.99	0.003
319.20	0.003
319.41	0.003
319.62	0.003
319.83	0.003
320.04	0.003
320.25	0.003
320.46	0.003
320.67	0.003
320.88	0.003
321.09	0.003
321.30	0.003
321.51	0.003
321.72	0.003
321.93	0.003
322.14	0.003
322.35	0.003
322.56	0.003
322.77	0.003
322.98	0.003
323.19	0.003
323.40	0.003
323.61	0.003
323.82	0.003
324.03	0.003
324.24	0.003
324.45	0.003
324.66	0.003
324.87	0.003
325.08	0.004
325.29	0.003
325.50	0.003
325.71	0.004
325.92	0.004
326.13	0.003
326.34	0.003
326.55	0.003
326.76	0.003
326.97	0.003
327.18	0.003
327.39	0.003
327.60	0.003
327.80	0.003
328.01	0.003
328.22	0.003
328.43	0.003
328.64	0.003
328.85	0.003
329.06	0.003
329.27	0.003
329.48	0.003
329.69	0.003
329.90	0.003
330.11	0.003
330.32	0.003
330.53	0.003
330.74	0.003
330.95	0.003
331.16	0.003
331.37	0.003
331.58	0.003
331.79	0.003
332.00	0.003
332.21	0.003
332.42	0.003
332.63	0.003
332.83	0.003
333.04	0.003
333.25	0.003
333.46	0.003
333.67	0.003
333.88	0.003
334.09	0.003
334.30	0.003
334.51	0.003
334.72	0.003
334.93	0.003
335.14	0.003
335.35	0.003
335.56	0.003
335.77	0.003
335.98	0.003
336.18	0.003
336.39	0.003
336.60	0.003
336.81	0.003
337.02	0.003
337.23	0.003
337.44	0.003
337.65	0.003
337.86	0.003
338.07	0.003
338.28	0.003
338.49	0.003
338.70	0.003
338.91	0.002
339.11	0.002
339.32	0.002
339.53	0.002
339.74	0.002
339.95	0.002
340.16	0.002
340.37	0.002
340.58	0.002
340.79	0.002
341.00	0.002
341.21	0.002
341.41	0.003
341.62	0.003
341.83	0.003
342.04	0.002
342.25	0.003
342.46	0.003
342.67	0.003
342.88	0.003
343.09	0.003
343.30	0.003
343.50	0.003
343.71	0.003
343.92	0.003
344.13	0.003
344.34	0.003
344.55	0.003
344.76	0.003
344.97	0.003
345.18	0.003
345.38	0.003
345.59	0.003
345.80	0.003
346.01	0.003
346.22	0.003
346.43	0.003
346.64	0.003
346.85	0.003
347.06	0.003
347.26	0.003
347.47	0.003
347.68	0.003
347.89	0.003
348.10	0.003
348.31	0.003
348.52	0.003
348.73	0.003
348.93	0.003
349.14	0.003
349.35	0.003
349.56	0.003
349.77	0.003
349.98	0.003
350.19	0.003
350.39	0.003
350.60	0.003
350.81	0.003
351.02	0.003
351.23	0.003
351.44	0.003
351.65	0.003
351.86	0.003
352.06	0.003
352.27	0.003
352.48	0.003
352.69	0.003
352.90	0.003
353.11	0.003
353.31	0.003
353.52	0.003
353.73	0.003
353.94	0.003
354.15	0.003
354.36	0.003
354.57	0.003
354.77	0.003
354.98	0.003
355.19	0.003
355.40	0.003
355.61	0.003
355.82	0.003
356.02	0.003
356.23	0.003
356.44	0.003
356.65	0.003
356.86	0.003
357.07	0.003
357.27	0.003
357.48	0.003
357.69	0.003
357.90	0.003
358.11	0.003
358.32	0.003
358.52	0.003
358.73	0.003
358.94	0.002
359.15	0.003
359.36	0.003
359.56	0.003
359.77	0.003
359.98	0.002
360.19	0.002
360.40	0.002
360.61	0.002
360.81	0.002
361.02	0.002
361.23	0.002
361.44	0.002
361.65	0.002
361.85	0.003
362.06	0.002
362.27	0.003
362.48	0.003
362.69	0.003
362.89	0.003
363.10	0.003
363.31	0.003
363.52	0.003
363.73	0.003
363.93	0.003
364.14	0.003
364.35	0.003
364.56	0.003
364.77	0.003
364.97	0.003
365.18	0.003
365.39	0.003
365.60	0.003
365.81	0.003
366.01	0.003
366.22	0.003
366.43	0.003
366.64	0.003
366.84	0.003
367.05	0.003
367.26	0.003
367.47	0.003
367.68	0.003
367.88	0.003
368.09	0.003
368.30	0.003
368.51	0.003
368.71	0.003
368.92	0.003
369.13	0.003
369.34	0.003
369.55	0.003
369.75	0.003
369.96	0.003
370.17	0.002
370.38	0.002
370.58	0.002
370.79	0.002
371.00	0.002
371.21	0.002
371.41	0.002
371.62	0.002
371.83	0.002
372.04	0.002
372.24	0.002
372.45	0.002
372.66	0.002
372.87	0.002
373.07	0.002
373.28	0.002
373.49	0.002
373.70	0.002
373.90	0.002
374.11	0.002
374.32	0.002
374.53	0.002
374.73	0.002
374.94	0.003
375.15	0.002
375.36	0.002
375.56	0.002
375.77	0.002
375.98	0.002
376.19	0.002
376.39	0.002
376.60	0.002
376.81	0.002
377.02	0.002
377.22	0.002
377.43	0.002
377.64	0.002
377.84	0.002
378.05	0.002
378.26	0.002
378.47	0.002
378.67	0.003
378.88	0.003
379.09	0.003
379.30	0.002
379.50	0.002
379.71	0.002
379.92	0.002
380.12	0.002
380.33	0.002
380.54	0.002
380.75	0.002
380.95	0.002
381.16	0.002
381.37	0.002
381.57	0.002
381.78	0.002
381.99	0.002
382.20	0.002
382.40	0.002
382.61	0.002
382.82	0.002
383.02	0.002
383.23	0.002
383.44	0.002
383.64	0.002
383.85	0.002
384.06	0.002
384.27	0.002
384.47	0.003
384.68	0.003
384.89	0.003
385.09	0.003
385.30	0.002
385.51	0.002
385.71	0.002
385.92	0.002
386.13	0.002
386.33	0.002
386.54	0.002
386.75	0.002
386.95	0.002
387.16	0.002
387.37	0.003
387.58	0.002
387.78	0.002
387.99	0.002
388.20	0.002
388.40	0.002
388.61	0.002
388.82	0.002
389.02	0.002
389.23	0.002
389.44	0.002
389.64	0.002
389.85	0.002
390.06	0.002
390.26	0.002
390.47	0.002
390.68	0.002
390.88	0.002
391.09	0.002
391.30	0.002
391.50	0.002
391.71	0.002
391.92	0.002
392.12	0.002
392.33	0.002
392.53	0.002
392.74	0.002
392.95	0.002
393.15	0.002
393.36	0.002
393.57	0.002
393.77	0.002
393.98	0.002
394.19	0.002
394.39	0.002
394.60	0.002
394.81	0.002
395.01	0.002
395.22	0.002
395.43	0.002
395.63	0.002
395.84	0.002
396.04	0.002
396.25	0.002
396.46	0.002
396.66	0.002
396.87	0.002
397.08	0.002
397.28	0.002
397.49	0.002
397.69	0.002
397.90	0.002
398.11	0.002
398.31	0.002
398.52	0.002
398.73	0.002
398.93	0.002
399.14	0.002
399.34	0.002
399.55	0.002
399.76	0.002
399.96	0.002
400.17	0.002
400.37	0.002
400.58	0.002
400.79	0.002
400.99	0.002
401.20	0.002
401.41	0.002
401.61	0.002
401.82	0.002
402.02	0.002
402.23	0.002
402.44	0.002
402.64	0.002
402.85	0.002
403.05	0.002
403.26	0.002
403.47	0.002
403.67	0.001
403.88	0.002
404.08	0.001
404.29	0.001
404.50	0.001
404.70	0.002
404.91	0.001
405.11	0.001
405.32	0.001
405.52	0.001
405.73	0.001
405.94	0.002
406.14	0.002
406.35	0.002
406.55	0.002
406.76	0.002
406.97	0.002
407.17	0.002
407.38	0.002
407.58	0.002
407.79	0.002
407.99	0.002
408.20	0.002
408.41	0.002
408.61	0.002
408.82	0.002
409.02	0.002
409.23	0.002
409.43	0.002
409.64	0.002
409.84	0.002
410.05	0.002
410.26	0.002
410.46	0.002
410.67	0.002
410.87	0.002
411.08	0.002
411.28	0.002
411.49	0.002
411.69	0.002
411.90	0.002
412.11	0.002
412.31	0.002
412.52	0.002
412.72	0.002
412.93	0.002
413.13	0.002
413.34	0.002
413.54	0.002
413.75	0.002
413.95	0.002
414.16	0.002
414.37	0.002
414.57	0.002
414.78	0.002
414.98	0.002
415.19	0.002
415.39	0.002
415.60	0.002
415.80	0.002
416.01	0.002
416.21	0.002
416.42	0.002
416.62	0.002
416.83	0.002
417.03	0.002
417.24	0.002
417.44	0.002
417.65	0.002
417.86	0.002
418.06	0.002
418.27	0.002
418.47	0.002
418.68	0.002
418.88	0.002
419.09	0.002
419.29	0.002
419.50	0.002
419.70	0.002
419.91	0.002
420.11	0.002
420.32	0.002
420.52	0.002
420.73	0.002
420.93	0.002
421.14	0.002
421.34	0.002
421.55	0.002
421.75	0.002
421.96	0.002
422.16	0.002
422.37	0.002
422.57	0.002
422.78	0.002
422.98	0.002
423.19	0.002
423.39	0.002
423.60	0.002
423.80	0.002
424.01	0.002
424.21	0.002
424.42	0.002
424.62	0.002
424.83	0.002
425.03	0.002
425.23	0.002
425.44	0.002
425.64	0.002
425.85	0.002
426.05	0.002
426.26	0.002
426.46	0.002
426.67	0.002
426.87	0.002
427.08	0.002
427.28	0.002
427.49	0.002
427.69	0.002
427.90	0.002
428.10	0.002
428.31	0.002
428.51	0.002
428.71	0.002
428.92	0.002
429.12	0.002
429.33	0.002
429.53	0.002
429.74	0.002
429.94	0.002
430.15	0.002
430.35	0.002
430.56	0.002
430.76	0.002
430.96	0.002
431.17	0.002
431.37	0.002
431.58	0.002
431.78	0.002
431.99	0.002
432.19	0.002
432.40	0.002
432.60	0.002
432.80	0.002
433.01	0.002
433.21	0.002
433.42	0.002
433.62	0.002
433.83	0.002
434.03	0.002
434.23	0.002
434.44	0.002
434.64	0.002
434.85	0.002
435.05	0.002
435.26	0.001
435.46	0.001
435.66	0.001
435.87	0.001
436.07	0.001
436.28	0.001
436.48	0.001
436.69	0.002
436.89	0.002
437.09	0.002
437.30	0.002
437.50	0.002
437.71	0.002
437.91	0.002
438.11	0.002
438.32	0.002
438.52	0.002
438.73	0.002
438.93	0.002
439.13	0.002
439.34	0.002
439.54	0.001
439.75	0.002
439.95	0.002
440.15	0.002
440.36	0.002
440.56	0.002
440.77	0.002
440.97	0.001
441.17	0.002
441.38	0.002
441.58	0.002
441.79	0.002
441.99	0.002
442.19	0.001
442.40	0.001
442.60	0.001
442.81	0.001
443.01	0.001
443.21	0.002
443.42	0.001
443.62	0.001
443.82	0.001
444.03	0.001
444.23	0.001
444.44	0.001
444.64	0.001
444.84	0.001
445.05	0.001
445.25	0.001
445.45	0.001
445.66	0.001
445.86	0.001
446.06	0.001
446.27	0.001
446.47	0.001
446.68	0.001
446.88	0.001
447.08	0.001
447.29	0.001
447.49	0.001
447.69	0.001
447.90	0.001
448.10	0.001
448.30	0.001
448.51	0.001
448.71	0.001
448.91	0.001
449.12	0.001
449.32	0.001
449.52	0.001
449.73	0.001
449.93	0.002
450.14	0.001
450.34	0.002
450.54	0.001
450.75	0.001
450.95	0.001
451.15	0.001
451.36	0.001
451.56	0.001
451.76	0.001
451.97	0.001
452.17	0.001
452.37	0.001
452.58	0.001
452.78	0.001
452.98	0.001
453.19	0.001
453.39	0.002
453.59	0.001
453.79	0.001
454.00	0.001
454.20	0.001
454.40	0.001
454.61	0.001
454.81	0.001
455.01	0.001
455.22	0.001
455.42	0.001
455.62	0.001
455.83	0.001
456.03	0.001
456.23	0.001
456.44	0.001
456.64	0.001
456.84	0.001
457.04	0.001
457.25	0.001
457.45	0.001
457.65	0.001
457.86	0.001
458.06	0.001
458.26	0.001
458.47	0.001
458.67	0.001
458.87	0.001
459.07	0.001
459.28	0.001
459.48	0.001
459.68	0.001
459.89	0.001
460.09	0.001
460.29	0.001
460.49	0.001
460.70	0.001
460.90	0.001
461.10	0.001
461.31	0.001
461.51	0.001
461.71	0.001
461.91	0.001
462.12	0.001
462.32	0.001
462.52	0.001
462.72	0.001
462.93	0.001
463.13	0.001
463.33	0.001
463.53	0.001
463.74	0.001
463.94	0.001
464.14	0.001
464.35	0.001
464.55	0.001
464.75	0.001
464.95	0.001
465.16	0.001
465.36	0.001
465.56	0.001
465.76	0.002
465.97	0.002
466.17	0.002
