SpectraSuite Data File
++++++++++++++++++++++++++++++++++++
Date: Mon Jun 15 09:33:44 PDT 2015
User: introlabs
Dark Spectrum Present: Yes
Reference Spectrum Present: Yes
Number of Sampled Component Spectra: 1
Spectrometers: USB4H08886
Integration Time (usec): 44366 (USB4H08886)
Spectra Averaged: 20 (USB4H08886)
Boxcar Smoothing: 5 (USB4H08886)
Correct for Electrical Dark: Yes (USB4H08886)
Strobe/Lamp Enabled: No (USB4H08886)
Correct for Detector Non-linearity: Yes (USB4H08886)
Correct for Stray Light: Yes (USB4H08886)
Number of Pixels in Processed Spectrum: 3648
>>>>>Begin Processed Spectral Data<<<<<
178.14	-0.000
178.36	-0.000
178.57	-0.000
178.79	-0.000
179.01	-0.507
179.22	-0.000
179.44	-0.000
179.65	-0.297
179.87	0.037
180.08	0.225
180.30	0.195
180.52	0.211
180.73	0.254
180.95	0.150
181.16	0.109
181.38	0.058
181.59	0.044
181.81	0.037
182.03	0.058
182.24	0.054
182.46	0.042
182.67	0.041
182.89	0.036
183.10	0.030
183.32	0.028
183.54	0.020
183.75	0.029
183.97	0.036
184.18	0.034
184.40	0.025
184.61	0.036
184.83	0.043
185.04	0.044
185.26	0.052
185.48	0.050
185.69	0.055
185.91	0.060
186.12	0.070
186.34	0.070
186.55	0.059
186.77	0.072
186.98	0.063
187.20	0.052
187.42	0.060
187.63	0.055
187.85	0.063
188.06	0.062
188.28	0.055
188.49	0.056
188.71	0.056
188.92	0.060
189.14	0.048
189.36	0.059
189.57	0.068
189.79	0.058
190.00	0.055
190.22	0.048
190.43	0.042
190.65	0.039
190.86	0.043
191.08	0.039
191.29	0.047
191.51	0.052
191.72	0.042
191.94	0.043
192.16	0.047
192.37	0.045
192.59	0.050
192.80	0.048
193.02	0.056
193.23	0.055
193.45	0.051
193.66	0.046
193.88	0.039
194.09	0.037
194.31	0.036
194.52	0.031
194.74	0.030
194.95	0.027
195.17	0.025
195.38	0.014
195.60	-0.004
195.81	0.001
196.03	-0.000
196.25	0.011
196.46	0.012
196.68	0.018
196.89	0.027
197.11	0.030
197.32	0.027
197.54	0.033
197.75	0.044
197.97	0.054
198.18	0.053
198.40	0.059
198.61	0.048
198.83	0.046
199.04	0.036
199.26	0.018
199.47	0.010
199.69	0.020
199.90	0.027
200.12	0.023
200.33	0.024
200.55	0.020
200.76	0.015
200.98	0.012
201.19	0.015
201.41	0.018
201.62	0.032
201.84	0.044
202.05	0.038
202.27	0.036
202.48	0.032
202.70	0.035
202.91	0.039
203.13	0.033
203.34	0.032
203.56	0.031
203.77	0.035
203.99	0.024
204.20	0.018
204.42	0.015
204.63	0.019
204.85	0.014
205.06	0.010
205.28	0.010
205.49	0.014
205.71	0.025
205.92	0.028
206.14	0.021
206.35	0.033
206.56	0.039
206.78	0.040
206.99	0.041
207.21	0.050
207.42	0.052
207.64	0.047
207.85	0.046
208.07	0.043
208.28	0.049
208.50	0.059
208.71	0.055
208.93	0.057
209.14	0.063
209.36	0.057
209.57	0.061
209.79	0.060
210.00	0.070
210.22	0.079
210.43	0.073
210.64	0.071
210.86	0.064
211.07	0.057
211.29	0.047
211.50	0.042
211.72	0.041
211.93	0.036
212.15	0.032
212.36	0.030
212.58	0.025
212.79	0.029
213.01	0.019
213.22	0.027
213.43	0.033
213.65	0.036
213.86	0.040
214.08	0.050
214.29	0.047
214.51	0.049
214.72	0.044
214.94	0.041
215.15	0.047
215.36	0.052
215.58	0.042
215.79	0.040
216.01	0.043
216.22	0.049
216.44	0.036
216.65	0.036
216.87	0.044
217.08	0.045
217.29	0.053
217.51	0.045
217.72	0.047
217.94	0.051
218.15	0.056
218.37	0.051
218.58	0.043
218.80	0.052
219.01	0.054
219.22	0.046
219.44	0.051
219.65	0.048
219.87	0.054
220.08	0.046
220.30	0.038
220.51	0.034
220.72	0.040
220.94	0.039
221.15	0.035
221.37	0.032
221.58	0.032
221.79	0.033
222.01	0.028
222.22	0.020
222.44	0.028
222.65	0.033
222.87	0.034
223.08	0.033
223.29	0.034
223.51	0.037
223.72	0.037
223.94	0.032
224.15	0.033
224.36	0.037
224.58	0.035
224.79	0.032
225.01	0.031
225.22	0.028
225.44	0.027
225.65	0.031
225.86	0.030
226.08	0.030
226.29	0.031
226.51	0.033
226.72	0.034
226.93	0.038
227.15	0.036
227.36	0.035
227.58	0.039
227.79	0.041
228.00	0.035
228.22	0.025
228.43	0.022
228.65	0.021
228.86	0.016
229.07	0.016
229.29	0.017
229.50	0.016
229.72	0.018
229.93	0.014
230.14	0.011
230.36	0.011
230.57	0.014
230.78	0.013
231.00	0.012
231.21	0.010
231.43	0.009
231.64	0.007
231.85	0.010
232.07	0.010
232.28	0.009
232.50	0.007
232.71	0.008
232.92	0.008
233.14	0.009
233.35	0.013
233.56	0.013
233.78	0.012
233.99	0.011
234.21	0.009
234.42	0.008
234.63	0.009
234.85	0.011
235.06	0.010
235.27	0.011
235.49	0.010
235.70	0.009
235.91	0.007
236.13	0.007
236.34	0.006
236.56	0.004
236.77	0.005
236.98	0.005
237.20	0.004
237.41	0.005
237.62	0.005
237.84	0.005
238.05	0.004
238.26	0.006
238.48	0.005
238.69	0.008
238.91	0.009
239.12	0.008
239.33	0.008
239.55	0.009
239.76	0.009
239.97	0.011
240.19	0.012
240.40	0.012
240.61	0.013
240.83	0.013
241.04	0.013
241.25	0.013
241.47	0.015
241.68	0.016
241.89	0.016
242.11	0.016
242.32	0.017
242.53	0.017
242.75	0.018
242.96	0.019
243.17	0.020
243.39	0.021
243.60	0.022
243.81	0.022
244.03	0.021
244.24	0.022
244.45	0.023
244.67	0.024
244.88	0.024
245.09	0.025
245.31	0.025
245.52	0.024
245.73	0.025
245.95	0.025
246.16	0.025
246.37	0.026
246.59	0.026
246.80	0.026
247.01	0.026
247.23	0.026
247.44	0.026
247.65	0.026
247.87	0.027
248.08	0.027
248.29	0.027
248.51	0.028
248.72	0.028
248.93	0.028
249.15	0.028
249.36	0.029
249.57	0.029
249.78	0.029
250.00	0.029
250.21	0.028
250.42	0.029
250.64	0.029
250.85	0.030
251.06	0.030
251.28	0.030
251.49	0.030
251.70	0.030
251.92	0.030
252.13	0.031
252.34	0.031
252.55	0.031
252.77	0.031
252.98	0.031
253.19	0.031
253.41	0.031
253.62	0.031
253.83	0.032
254.05	0.032
254.26	0.032
254.47	0.032
254.68	0.032
254.90	0.032
255.11	0.032
255.32	0.033
255.54	0.033
255.75	0.033
255.96	0.033
256.17	0.032
256.39	0.033
256.60	0.033
256.81	0.033
257.03	0.033
257.24	0.033
257.45	0.033
257.66	0.032
257.88	0.032
258.09	0.032
258.30	0.031
258.51	0.031
258.73	0.031
258.94	0.031
259.15	0.030
259.37	0.030
259.58	0.029
259.79	0.029
260.00	0.029
260.22	0.029
260.43	0.029
260.64	0.028
260.85	0.028
261.07	0.028
261.28	0.028
261.49	0.028
261.71	0.028
261.92	0.028
262.13	0.028
262.34	0.028
262.56	0.028
262.77	0.027
262.98	0.027
263.19	0.027
263.41	0.026
263.62	0.026
263.83	0.026
264.04	0.025
264.26	0.025
264.47	0.025
264.68	0.025
264.89	0.024
265.11	0.024
265.32	0.024
265.53	0.024
265.74	0.024
265.96	0.024
266.17	0.023
266.38	0.023
266.59	0.023
266.81	0.023
267.02	0.022
267.23	0.021
267.44	0.021
267.65	0.020
267.87	0.020
268.08	0.019
268.29	0.019
268.50	0.019
268.72	0.019
268.93	0.018
269.14	0.018
269.35	0.018
269.57	0.018
269.78	0.018
269.99	0.018
270.20	0.017
270.41	0.017
270.63	0.017
270.84	0.017
271.05	0.016
271.26	0.016
271.48	0.015
271.69	0.015
271.90	0.014
272.11	0.014
272.32	0.013
272.54	0.013
272.75	0.013
272.96	0.012
273.17	0.012
273.39	0.012
273.60	0.012
273.81	0.011
274.02	0.011
274.23	0.012
274.45	0.011
274.66	0.011
274.87	0.011
275.08	0.011
275.29	0.011
275.51	0.011
275.72	0.011
275.93	0.011
276.14	0.011
276.35	0.011
276.57	0.011
276.78	0.011
276.99	0.011
277.20	0.011
277.41	0.011
277.63	0.011
277.84	0.011
278.05	0.011
278.26	0.011
278.47	0.011
278.69	0.011
278.90	0.011
279.11	0.012
279.32	0.012
279.53	0.012
279.74	0.012
279.96	0.013
280.17	0.013
280.38	0.013
280.59	0.013
280.80	0.013
281.02	0.013
281.23	0.013
281.44	0.013
281.65	0.013
281.86	0.014
282.07	0.014
282.29	0.014
282.50	0.014
282.71	0.014
282.92	0.015
283.13	0.015
283.35	0.015
283.56	0.015
283.77	0.015
283.98	0.016
284.19	0.016
284.40	0.016
284.62	0.017
284.83	0.017
285.04	0.018
285.25	0.018
285.46	0.019
285.67	0.019
285.88	0.019
286.10	0.020
286.31	0.021
286.52	0.021
286.73	0.022
286.94	0.022
287.15	0.023
287.37	0.024
287.58	0.024
287.79	0.025
288.00	0.026
288.21	0.026
288.42	0.026
288.63	0.027
288.85	0.027
289.06	0.028
289.27	0.029
289.48	0.029
289.69	0.029
289.90	0.030
290.11	0.030
290.33	0.031
290.54	0.031
290.75	0.032
290.96	0.032
291.17	0.032
291.38	0.033
291.59	0.033
291.81	0.033
292.02	0.034
292.23	0.034
292.44	0.034
292.65	0.034
292.86	0.034
293.07	0.035
293.28	0.035
293.50	0.035
293.71	0.035
293.92	0.035
294.13	0.036
294.34	0.036
294.55	0.036
294.76	0.036
294.97	0.036
295.19	0.036
295.40	0.036
295.61	0.036
295.82	0.036
296.03	0.036
296.24	0.036
296.45	0.036
296.66	0.036
296.87	0.036
297.09	0.036
297.30	0.036
297.51	0.036
297.72	0.036
297.93	0.036
298.14	0.037
298.35	0.037
298.56	0.036
298.77	0.036
298.99	0.037
299.20	0.037
299.41	0.037
299.62	0.037
299.83	0.036
300.04	0.036
300.25	0.036
300.46	0.036
300.67	0.036
300.88	0.036
301.10	0.036
301.31	0.036
301.52	0.036
301.73	0.036
301.94	0.036
302.15	0.036
302.36	0.036
302.57	0.036
302.78	0.036
302.99	0.036
303.20	0.036
303.41	0.036
303.63	0.036
303.84	0.036
304.05	0.036
304.26	0.036
304.47	0.036
304.68	0.036
304.89	0.036
305.10	0.036
305.31	0.036
305.52	0.036
305.73	0.036
305.94	0.036
306.15	0.036
306.37	0.036
306.58	0.036
306.79	0.036
307.00	0.036
307.21	0.036
307.42	0.036
307.63	0.036
307.84	0.036
308.05	0.036
308.26	0.035
308.47	0.036
308.68	0.036
308.89	0.035
309.10	0.035
309.31	0.035
309.52	0.035
309.73	0.035
309.95	0.035
310.16	0.035
310.37	0.035
310.58	0.035
310.79	0.035
311.00	0.035
311.21	0.035
311.42	0.035
311.63	0.035
311.84	0.035
312.05	0.035
312.26	0.035
312.47	0.035
312.68	0.035
312.89	0.035
313.10	0.035
313.31	0.035
313.52	0.035
313.73	0.035
313.94	0.035
314.15	0.035
314.36	0.035
314.57	0.035
314.78	0.035
314.99	0.035
315.21	0.035
315.42	0.035
315.63	0.035
315.84	0.034
316.05	0.034
316.26	0.034
316.47	0.034
316.68	0.034
316.89	0.034
317.10	0.034
317.31	0.034
317.52	0.034
317.73	0.034
317.94	0.034
318.15	0.034
318.36	0.034
318.57	0.034
318.78	0.034
318.99	0.034
319.20	0.034
319.41	0.034
319.62	0.034
319.83	0.034
320.04	0.034
320.25	0.034
320.46	0.034
320.67	0.034
320.88	0.034
321.09	0.034
321.30	0.034
321.51	0.034
321.72	0.034
321.93	0.034
322.14	0.033
322.35	0.033
322.56	0.033
322.77	0.033
322.98	0.033
323.19	0.034
323.40	0.034
323.61	0.034
323.82	0.034
324.03	0.034
324.24	0.034
324.45	0.034
324.66	0.034
324.87	0.034
325.08	0.034
325.29	0.034
325.50	0.033
325.71	0.033
325.92	0.033
326.13	0.033
326.34	0.033
326.55	0.033
326.76	0.033
326.97	0.033
327.18	0.033
327.39	0.034
327.60	0.034
327.80	0.034
328.01	0.033
328.22	0.033
328.43	0.034
328.64	0.034
328.85	0.034
329.06	0.034
329.27	0.034
329.48	0.034
329.69	0.033
329.90	0.034
330.11	0.034
330.32	0.034
330.53	0.034
330.74	0.033
330.95	0.033
331.16	0.033
331.37	0.034
331.58	0.034
331.79	0.034
332.00	0.034
332.21	0.034
332.42	0.034
332.63	0.034
332.83	0.034
333.04	0.034
333.25	0.034
333.46	0.034
333.67	0.034
333.88	0.034
334.09	0.034
334.30	0.034
334.51	0.034
334.72	0.034
334.93	0.034
335.14	0.034
335.35	0.034
335.56	0.034
335.77	0.034
335.98	0.034
336.18	0.034
336.39	0.034
336.60	0.034
336.81	0.034
337.02	0.034
337.23	0.034
337.44	0.034
337.65	0.034
337.86	0.034
338.07	0.034
338.28	0.034
338.49	0.034
338.70	0.034
338.91	0.034
339.11	0.034
339.32	0.034
339.53	0.034
339.74	0.034
339.95	0.034
340.16	0.034
340.37	0.034
340.58	0.034
340.79	0.034
341.00	0.034
341.21	0.034
341.41	0.034
341.62	0.034
341.83	0.034
342.04	0.034
342.25	0.034
342.46	0.034
342.67	0.034
342.88	0.034
343.09	0.034
343.30	0.035
343.50	0.035
343.71	0.035
343.92	0.035
344.13	0.035
344.34	0.035
344.55	0.035
344.76	0.035
344.97	0.035
345.18	0.035
345.38	0.035
345.59	0.035
345.80	0.035
346.01	0.035
346.22	0.035
346.43	0.035
346.64	0.035
346.85	0.035
347.06	0.035
347.26	0.035
347.47	0.035
347.68	0.035
347.89	0.035
348.10	0.035
348.31	0.035
348.52	0.035
348.73	0.035
348.93	0.035
349.14	0.035
349.35	0.035
349.56	0.034
349.77	0.034
349.98	0.034
350.19	0.034
350.39	0.035
350.60	0.035
350.81	0.035
351.02	0.035
351.23	0.035
351.44	0.035
351.65	0.035
351.86	0.035
352.06	0.035
352.27	0.035
352.48	0.035
352.69	0.035
352.90	0.035
353.11	0.035
353.31	0.035
353.52	0.035
353.73	0.035
353.94	0.035
354.15	0.035
354.36	0.035
354.57	0.035
354.77	0.035
354.98	0.035
355.19	0.035
355.40	0.035
355.61	0.035
355.82	0.036
356.02	0.036
356.23	0.036
356.44	0.036
356.65	0.036
356.86	0.036
357.07	0.035
357.27	0.036
357.48	0.036
357.69	0.036
357.90	0.036
358.11	0.036
358.32	0.035
358.52	0.035
358.73	0.036
358.94	0.036
359.15	0.036
359.36	0.036
359.56	0.036
359.77	0.036
359.98	0.036
360.19	0.036
360.40	0.036
360.61	0.036
360.81	0.036
361.02	0.036
361.23	0.036
361.44	0.036
361.65	0.036
361.85	0.036
362.06	0.036
362.27	0.036
362.48	0.036
362.69	0.036
362.89	0.036
363.10	0.036
363.31	0.036
363.52	0.036
363.73	0.036
363.93	0.036
364.14	0.036
364.35	0.036
364.56	0.036
364.77	0.036
364.97	0.036
365.18	0.036
365.39	0.036
365.60	0.036
365.81	0.036
366.01	0.036
366.22	0.036
366.43	0.036
366.64	0.036
366.84	0.036
367.05	0.036
367.26	0.036
367.47	0.036
367.68	0.036
367.88	0.036
368.09	0.036
368.30	0.037
368.51	0.036
368.71	0.036
368.92	0.037
369.13	0.036
369.34	0.036
369.55	0.036
369.75	0.036
369.96	0.036
370.17	0.036
370.38	0.036
370.58	0.036
370.79	0.036
371.00	0.036
371.21	0.036
371.41	0.036
371.62	0.036
371.83	0.036
372.04	0.036
372.24	0.036
372.45	0.036
372.66	0.036
372.87	0.036
373.07	0.036
373.28	0.036
373.49	0.036
373.70	0.036
373.90	0.036
374.11	0.036
374.32	0.036
374.53	0.036
374.73	0.036
374.94	0.036
375.15	0.036
375.36	0.036
375.56	0.036
375.77	0.036
375.98	0.036
376.19	0.036
376.39	0.036
376.60	0.036
376.81	0.036
377.02	0.036
377.22	0.036
377.43	0.036
377.64	0.036
377.84	0.036
378.05	0.036
378.26	0.036
378.47	0.036
378.67	0.036
378.88	0.035
379.09	0.035
379.30	0.035
379.50	0.035
379.71	0.035
379.92	0.035
380.12	0.035
380.33	0.035
380.54	0.036
380.75	0.036
380.95	0.035
381.16	0.036
381.37	0.036
381.57	0.036
381.78	0.035
381.99	0.036
382.20	0.036
382.40	0.036
382.61	0.036
382.82	0.036
383.02	0.036
383.23	0.036
383.44	0.036
383.64	0.036
383.85	0.036
384.06	0.036
384.27	0.036
384.47	0.036
384.68	0.036
384.89	0.036
385.09	0.036
385.30	0.036
385.51	0.035
385.71	0.035
385.92	0.035
386.13	0.035
386.33	0.035
386.54	0.035
386.75	0.035
386.95	0.035
387.16	0.035
387.37	0.035
387.58	0.035
387.78	0.035
387.99	0.035
388.20	0.035
388.40	0.035
388.61	0.035
388.82	0.035
389.02	0.035
389.23	0.035
389.44	0.035
389.64	0.035
389.85	0.035
390.06	0.035
390.26	0.035
390.47	0.035
390.68	0.035
390.88	0.035
391.09	0.035
391.30	0.035
391.50	0.035
391.71	0.035
391.92	0.035
392.12	0.035
392.33	0.035
392.53	0.035
392.74	0.035
392.95	0.035
393.15	0.035
393.36	0.035
393.57	0.035
393.77	0.035
393.98	0.035
394.19	0.035
394.39	0.035
394.60	0.035
394.81	0.035
395.01	0.035
395.22	0.035
395.43	0.035
395.63	0.035
395.84	0.035
396.04	0.035
396.25	0.035
396.46	0.034
396.66	0.034
396.87	0.034
397.08	0.034
397.28	0.034
397.49	0.034
397.69	0.034
397.90	0.034
398.11	0.034
398.31	0.034
398.52	0.034
398.73	0.034
398.93	0.034
399.14	0.034
399.34	0.034
399.55	0.034
399.76	0.034
399.96	0.034
400.17	0.034
400.37	0.034
400.58	0.034
400.79	0.035
400.99	0.035
401.20	0.035
401.41	0.035
401.61	0.035
401.82	0.035
402.02	0.035
402.23	0.035
402.44	0.035
402.64	0.035
402.85	0.035
403.05	0.034
403.26	0.034
403.47	0.034
403.67	0.034
403.88	0.034
404.08	0.034
404.29	0.034
404.50	0.034
404.70	0.034
404.91	0.034
405.11	0.034
405.32	0.034
405.52	0.034
405.73	0.034
405.94	0.034
406.14	0.034
406.35	0.034
406.55	0.034
406.76	0.034
406.97	0.034
407.17	0.034
407.38	0.034
407.58	0.034
407.79	0.034
407.99	0.034
408.20	0.034
408.41	0.034
408.61	0.034
408.82	0.034
409.02	0.034
409.23	0.034
409.43	0.034
409.64	0.034
409.84	0.034
410.05	0.034
410.26	0.034
410.46	0.034
410.67	0.034
410.87	0.034
411.08	0.034
411.28	0.034
411.49	0.034
411.69	0.034
411.90	0.034
412.11	0.034
412.31	0.034
412.52	0.034
412.72	0.034
412.93	0.034
413.13	0.033
413.34	0.033
413.54	0.033
413.75	0.033
413.95	0.033
414.16	0.033
414.37	0.033
414.57	0.034
414.78	0.034
414.98	0.034
415.19	0.034
415.39	0.034
415.60	0.034
415.80	0.034
416.01	0.034
416.21	0.034
416.42	0.034
416.62	0.033
416.83	0.033
417.03	0.033
417.24	0.033
417.44	0.033
417.65	0.033
417.86	0.033
418.06	0.033
418.27	0.033
418.47	0.033
418.68	0.033
418.88	0.032
419.09	0.033
419.29	0.033
419.50	0.032
419.70	0.032
419.91	0.033
420.11	0.032
420.32	0.033
420.52	0.033
420.73	0.033
420.93	0.033
421.14	0.033
421.34	0.033
421.55	0.033
421.75	0.033
421.96	0.033
422.16	0.033
422.37	0.033
422.57	0.033
422.78	0.033
422.98	0.033
423.19	0.033
423.39	0.033
423.60	0.033
423.80	0.033
424.01	0.033
424.21	0.033
424.42	0.033
424.62	0.033
424.83	0.033
425.03	0.033
425.23	0.033
425.44	0.033
425.64	0.033
425.85	0.033
426.05	0.033
426.26	0.033
426.46	0.033
426.67	0.033
426.87	0.032
427.08	0.032
427.28	0.032
427.49	0.032
427.69	0.032
427.90	0.032
428.10	0.032
428.31	0.032
428.51	0.032
428.71	0.032
428.92	0.032
429.12	0.032
429.33	0.032
429.53	0.032
429.74	0.032
429.94	0.032
430.15	0.032
430.35	0.032
430.56	0.032
430.76	0.033
430.96	0.032
431.17	0.033
431.37	0.033
431.58	0.033
431.78	0.033
431.99	0.033
432.19	0.033
432.40	0.033
432.60	0.033
432.80	0.033
433.01	0.033
433.21	0.033
433.42	0.033
433.62	0.033
433.83	0.033
434.03	0.033
434.23	0.033
434.44	0.032
434.64	0.032
434.85	0.032
435.05	0.032
435.26	0.032
435.46	0.032
435.66	0.032
435.87	0.032
436.07	0.032
436.28	0.032
436.48	0.032
436.69	0.032
436.89	0.032
437.09	0.032
437.30	0.032
437.50	0.032
437.71	0.032
437.91	0.032
438.11	0.032
438.32	0.032
438.52	0.032
438.73	0.032
438.93	0.032
439.13	0.032
439.34	0.032
439.54	0.032
439.75	0.032
439.95	0.031
440.15	0.031
440.36	0.031
440.56	0.031
440.77	0.031
440.97	0.031
441.17	0.031
441.38	0.031
441.58	0.031
441.79	0.031
441.99	0.031
442.19	0.031
442.40	0.031
442.60	0.031
442.81	0.031
443.01	0.031
443.21	0.031
443.42	0.031
443.62	0.031
443.82	0.031
444.03	0.031
444.23	0.031
444.44	0.032
444.64	0.031
444.84	0.031
445.05	0.031
445.25	0.031
445.45	0.031
445.66	0.031
445.86	0.032
446.06	0.031
446.27	0.032
446.47	0.032
446.68	0.032
446.88	0.032
447.08	0.031
447.29	0.031
447.49	0.031
447.69	0.032
447.90	0.032
448.10	0.032
448.30	0.031
448.51	0.031
448.71	0.031
448.91	0.031
449.12	0.031
449.32	0.032
449.52	0.032
449.73	0.032
449.93	0.032
450.14	0.032
450.34	0.031
450.54	0.031
450.75	0.031
450.95	0.031
451.15	0.031
451.36	0.031
451.56	0.031
451.76	0.031
451.97	0.031
452.17	0.031
452.37	0.031
452.58	0.031
452.78	0.031
452.98	0.031
453.19	0.031
453.39	0.031
453.59	0.031
453.79	0.031
454.00	0.031
454.20	0.031
454.40	0.031
454.61	0.031
454.81	0.031
455.01	0.031
455.22	0.031
455.42	0.031
455.62	0.031
455.83	0.031
456.03	0.031
456.23	0.031
456.44	0.031
456.64	0.031
456.84	0.031
457.04	0.031
457.25	0.031
457.45	0.031
457.65	0.031
457.86	0.031
458.06	0.031
458.26	0.031
458.47	0.031
458.67	0.031
458.87	0.031
459.07	0.031
459.28	0.030
459.48	0.030
459.68	0.030
459.89	0.030
460.09	0.031
460.29	0.030
460.49	0.030
460.70	0.030
460.90	0.030
461.10	0.031
461.31	0.030
461.51	0.031
461.71	0.031
461.91	0.031
462.12	0.031
462.32	0.031
462.52	0.031
462.72	0.031
462.93	0.031
463.13	0.030
463.33	0.030
463.53	0.030
463.74	0.030
463.94	0.030
464.14	0.030
464.35	0.030
464.55	0.030
464.75	0.030
464.95	0.030
465.16	0.030
465.36	0.030
465.56	0.030
465.76	0.030
465.97	0.030
466.17	0.030
466.37	0.030
466.57	0.030
466.78	0.030
466.98	0.031
467.18	0.031
467.38	0.031
467.59	0.031
467.79	0.031
