SpectraSuite Data File
++++++++++++++++++++++++++++++++++++
Date: Mon Jun 15 09:35:48 PDT 2015
User: introlabs
Dark Spectrum Present: Yes
Reference Spectrum Present: Yes
Number of Sampled Component Spectra: 1
Spectrometers: USB4H08886
Integration Time (usec): 44366 (USB4H08886)
Spectra Averaged: 20 (USB4H08886)
Boxcar Smoothing: 5 (USB4H08886)
Correct for Electrical Dark: Yes (USB4H08886)
Strobe/Lamp Enabled: No (USB4H08886)
Correct for Detector Non-linearity: Yes (USB4H08886)
Correct for Stray Light: Yes (USB4H08886)
Number of Pixels in Processed Spectrum: 3648
>>>>>Begin Processed Spectral Data<<<<<
178.14	-0.000
178.36	-0.000
178.57	-0.000
178.79	-0.000
179.01	-0.000
179.22	-0.000
179.44	-0.000
179.65	-0.283
179.87	0.019
180.08	0.567
180.30	1.165
180.52	-0.000
180.73	0.459
180.95	0.140
181.16	0.090
181.38	0.095
181.59	0.099
181.81	0.076
182.03	0.077
182.24	0.075
182.46	0.061
182.67	0.054
182.89	0.058
183.10	0.062
183.32	0.061
183.54	0.056
183.75	0.052
183.97	0.050
184.18	0.048
184.40	0.035
184.61	0.042
184.83	0.038
185.04	0.038
185.26	0.031
185.48	0.032
185.69	0.026
185.91	0.027
186.12	0.022
186.34	0.035
186.55	0.030
186.77	0.035
186.98	0.034
187.20	0.025
187.42	0.031
187.63	0.034
187.85	0.030
188.06	0.043
188.28	0.042
188.49	0.043
188.71	0.026
188.92	0.025
189.14	0.015
189.36	0.019
189.57	0.030
189.79	0.024
190.00	0.025
190.22	0.028
190.43	0.023
190.65	0.019
190.86	0.025
191.08	0.025
191.29	0.027
191.51	0.034
191.72	0.028
191.94	0.024
192.16	0.027
192.37	0.026
192.59	0.025
192.80	0.025
193.02	0.036
193.23	0.036
193.45	0.036
193.66	0.038
193.88	0.043
194.09	0.041
194.31	0.033
194.52	0.029
194.74	0.027
194.95	0.026
195.17	0.025
195.38	0.008
195.60	0.004
195.81	0.015
196.03	0.008
196.25	0.011
196.46	0.009
196.68	0.013
196.89	0.013
197.11	0.018
197.32	0.017
197.54	0.005
197.75	0.024
197.97	0.018
198.18	0.011
198.40	0.017
198.61	0.005
198.83	0.003
199.04	0.003
199.26	0.001
199.47	0.001
199.69	0.014
199.90	0.032
200.12	0.019
200.33	0.026
200.55	0.025
200.76	0.017
200.98	0.013
201.19	0.017
201.41	0.017
201.62	0.019
201.84	0.018
202.05	0.008
202.27	-0.003
202.48	0.001
202.70	-0.006
202.91	-0.004
203.13	-0.003
203.34	0.003
203.56	-0.002
203.77	0.002
203.99	0.002
204.20	-0.001
204.42	-0.001
204.63	0.003
204.85	0.001
205.06	0.004
205.28	-0.004
205.49	-0.000
205.71	0.010
205.92	0.017
206.14	0.014
206.35	0.022
206.56	0.026
206.78	0.024
206.99	0.027
207.21	0.034
207.42	0.041
207.64	0.048
207.85	0.054
208.07	0.050
208.28	0.053
208.50	0.052
208.71	0.039
208.93	0.042
209.14	0.049
209.36	0.042
209.57	0.041
209.79	0.039
210.00	0.038
210.22	0.042
210.43	0.039
210.64	0.039
210.86	0.037
211.07	0.038
211.29	0.034
211.50	0.029
211.72	0.026
211.93	0.025
212.15	0.020
212.36	0.018
212.58	0.015
212.79	0.016
213.01	0.008
213.22	0.015
213.43	0.020
213.65	0.018
213.86	0.019
214.08	0.028
214.29	0.027
214.51	0.032
214.72	0.034
214.94	0.026
215.15	0.026
215.36	0.030
215.58	0.024
215.79	0.020
216.01	0.025
216.22	0.028
216.44	0.018
216.65	0.015
216.87	0.016
217.08	0.015
217.29	0.026
217.51	0.024
217.72	0.017
217.94	0.023
218.15	0.024
218.37	0.020
218.58	0.013
218.80	0.022
219.01	0.019
219.22	0.015
219.44	0.015
219.65	0.011
219.87	0.016
220.08	0.019
220.30	0.015
220.51	0.016
220.72	0.014
220.94	0.015
221.15	0.013
221.37	0.014
221.58	0.014
221.79	0.020
222.01	0.016
222.22	0.009
222.44	0.008
222.65	0.007
222.87	0.010
223.08	0.012
223.29	0.012
223.51	0.017
223.72	0.020
223.94	0.021
224.15	0.017
224.36	0.021
224.58	0.018
224.79	0.024
225.01	0.022
225.22	0.020
225.44	0.020
225.65	0.024
225.86	0.023
226.08	0.021
226.29	0.019
226.51	0.023
226.72	0.018
226.93	0.018
227.15	0.006
227.36	0.007
227.58	0.007
227.79	0.007
228.00	0.003
228.22	-0.003
228.43	-0.001
228.65	-0.001
228.86	-0.003
229.07	-0.001
229.29	0.002
229.50	0.005
229.72	0.003
229.93	0.001
230.14	-0.002
230.36	-0.004
230.57	-0.006
230.78	-0.011
231.00	-0.014
231.21	-0.021
231.43	-0.021
231.64	-0.021
231.85	-0.018
232.07	-0.016
232.28	-0.018
232.50	-0.020
232.71	-0.021
232.92	-0.019
233.14	-0.020
233.35	-0.018
233.56	-0.016
233.78	-0.018
233.99	-0.022
234.21	-0.024
234.42	-0.025
234.63	-0.024
234.85	-0.023
235.06	-0.023
235.27	-0.023
235.49	-0.022
235.70	-0.022
235.91	-0.022
236.13	-0.021
236.34	-0.020
236.56	-0.021
236.77	-0.021
236.98	-0.020
237.20	-0.021
237.41	-0.019
237.62	-0.019
237.84	-0.019
238.05	-0.019
238.26	-0.020
238.48	-0.020
238.69	-0.019
238.91	-0.019
239.12	-0.019
239.33	-0.018
239.55	-0.017
239.76	-0.016
239.97	-0.016
240.19	-0.015
240.40	-0.015
240.61	-0.013
240.83	-0.013
241.04	-0.013
241.25	-0.012
241.47	-0.011
241.68	-0.010
241.89	-0.009
242.11	-0.009
242.32	-0.009
242.53	-0.008
242.75	-0.007
242.96	-0.006
243.17	-0.005
243.39	-0.005
243.60	-0.005
243.81	-0.005
244.03	-0.005
244.24	-0.004
244.45	-0.003
244.67	-0.003
244.88	-0.001
245.09	-0.001
245.31	-0.001
245.52	-0.001
245.73	-0.001
245.95	-0.000
246.16	0.000
246.37	0.001
246.59	0.001
246.80	0.000
247.01	0.001
247.23	0.000
247.44	0.000
247.65	0.000
247.87	0.001
248.08	0.001
248.29	0.002
248.51	0.002
248.72	0.002
248.93	0.002
249.15	0.003
249.36	0.003
249.57	0.003
249.78	0.003
250.00	0.003
250.21	0.004
250.42	0.004
250.64	0.005
250.85	0.005
251.06	0.005
251.28	0.006
251.49	0.006
251.70	0.006
251.92	0.007
252.13	0.007
252.34	0.008
252.55	0.008
252.77	0.007
252.98	0.007
253.19	0.008
253.41	0.008
253.62	0.008
253.83	0.009
254.05	0.009
254.26	0.008
254.47	0.008
254.68	0.008
254.90	0.008
255.11	0.009
255.32	0.010
255.54	0.009
255.75	0.009
255.96	0.010
256.17	0.010
256.39	0.010
256.60	0.010
256.81	0.010
257.03	0.010
257.24	0.010
257.45	0.009
257.66	0.008
257.88	0.009
258.09	0.008
258.30	0.008
258.51	0.008
258.73	0.008
258.94	0.008
259.15	0.008
259.37	0.008
259.58	0.008
259.79	0.007
260.00	0.008
260.22	0.008
260.43	0.008
260.64	0.007
260.85	0.007
261.07	0.007
261.28	0.006
261.49	0.006
261.71	0.006
261.92	0.006
262.13	0.006
262.34	0.006
262.56	0.005
262.77	0.005
262.98	0.005
263.19	0.005
263.41	0.004
263.62	0.004
263.83	0.004
264.04	0.003
264.26	0.003
264.47	0.002
264.68	0.002
264.89	0.002
265.11	0.002
265.32	0.002
265.53	0.002
265.74	0.001
265.96	0.001
266.17	0.001
266.38	0.001
266.59	0.001
266.81	0.001
267.02	0.001
267.23	-0.000
267.44	-0.000
267.65	-0.001
267.87	-0.001
268.08	-0.002
268.29	-0.001
268.50	-0.002
268.72	-0.002
268.93	-0.002
269.14	-0.002
269.35	-0.003
269.57	-0.003
269.78	-0.003
269.99	-0.003
270.20	-0.004
270.41	-0.004
270.63	-0.004
270.84	-0.005
271.05	-0.005
271.26	-0.006
271.48	-0.006
271.69	-0.006
271.90	-0.006
272.11	-0.007
272.32	-0.007
272.54	-0.007
272.75	-0.007
272.96	-0.007
273.17	-0.008
273.39	-0.008
273.60	-0.008
273.81	-0.008
274.02	-0.008
274.23	-0.008
274.45	-0.009
274.66	-0.009
274.87	-0.009
275.08	-0.009
275.29	-0.009
275.51	-0.009
275.72	-0.009
275.93	-0.009
276.14	-0.009
276.35	-0.009
276.57	-0.009
276.78	-0.009
276.99	-0.009
277.20	-0.009
277.41	-0.009
277.63	-0.009
277.84	-0.009
278.05	-0.009
278.26	-0.009
278.47	-0.009
278.69	-0.008
278.90	-0.008
279.11	-0.008
279.32	-0.007
279.53	-0.007
279.74	-0.007
279.96	-0.007
280.17	-0.007
280.38	-0.006
280.59	-0.006
280.80	-0.006
281.02	-0.006
281.23	-0.006
281.44	-0.005
281.65	-0.005
281.86	-0.005
282.07	-0.005
282.29	-0.005
282.50	-0.005
282.71	-0.005
282.92	-0.004
283.13	-0.004
283.35	-0.004
283.56	-0.004
283.77	-0.004
283.98	-0.003
284.19	-0.003
284.40	-0.002
284.62	-0.002
284.83	-0.002
285.04	-0.001
285.25	-0.001
285.46	-0.001
285.67	0.000
285.88	0.001
286.10	0.001
286.31	0.002
286.52	0.002
286.73	0.003
286.94	0.004
287.15	0.005
287.37	0.005
287.58	0.006
287.79	0.007
288.00	0.007
288.21	0.008
288.42	0.009
288.63	0.009
288.85	0.010
289.06	0.010
289.27	0.011
289.48	0.011
289.69	0.012
289.90	0.012
290.11	0.012
290.33	0.013
290.54	0.013
290.75	0.014
290.96	0.014
291.17	0.015
291.38	0.015
291.59	0.015
291.81	0.015
292.02	0.015
292.23	0.016
292.44	0.016
292.65	0.016
292.86	0.016
293.07	0.017
293.28	0.017
293.50	0.017
293.71	0.017
293.92	0.017
294.13	0.018
294.34	0.018
294.55	0.018
294.76	0.019
294.97	0.019
295.19	0.019
295.40	0.019
295.61	0.019
295.82	0.019
296.03	0.019
296.24	0.019
296.45	0.019
296.66	0.019
296.87	0.019
297.09	0.019
297.30	0.019
297.51	0.019
297.72	0.019
297.93	0.019
298.14	0.019
298.35	0.019
298.56	0.019
298.77	0.019
298.99	0.020
299.20	0.020
299.41	0.020
299.62	0.020
299.83	0.020
300.04	0.020
300.25	0.020
300.46	0.020
300.67	0.020
300.88	0.020
301.10	0.020
301.31	0.020
301.52	0.020
301.73	0.020
301.94	0.020
302.15	0.020
302.36	0.020
302.57	0.020
302.78	0.020
302.99	0.020
303.20	0.019
303.41	0.020
303.63	0.020
303.84	0.020
304.05	0.019
304.26	0.020
304.47	0.020
304.68	0.019
304.89	0.020
305.10	0.020
305.31	0.020
305.52	0.020
305.73	0.019
305.94	0.019
306.15	0.019
306.37	0.020
306.58	0.020
306.79	0.020
307.00	0.020
307.21	0.020
307.42	0.020
307.63	0.020
307.84	0.020
308.05	0.020
308.26	0.020
308.47	0.020
308.68	0.020
308.89	0.020
309.10	0.019
309.31	0.019
309.52	0.019
309.73	0.019
309.95	0.019
310.16	0.019
310.37	0.019
310.58	0.019
310.79	0.019
311.00	0.019
311.21	0.019
311.42	0.019
311.63	0.019
311.84	0.019
312.05	0.019
312.26	0.019
312.47	0.019
312.68	0.019
312.89	0.019
313.10	0.019
313.31	0.019
313.52	0.019
313.73	0.019
313.94	0.019
314.15	0.019
314.36	0.019
314.57	0.019
314.78	0.019
314.99	0.019
315.21	0.019
315.42	0.019
315.63	0.019
315.84	0.019
316.05	0.019
316.26	0.019
316.47	0.019
316.68	0.019
316.89	0.019
317.10	0.019
317.31	0.019
317.52	0.019
317.73	0.019
317.94	0.019
318.15	0.019
318.36	0.019
318.57	0.019
318.78	0.019
318.99	0.019
319.20	0.019
319.41	0.019
319.62	0.019
319.83	0.019
320.04	0.019
320.25	0.019
320.46	0.019
320.67	0.019
320.88	0.019
321.09	0.019
321.30	0.019
321.51	0.019
321.72	0.019
321.93	0.019
322.14	0.019
322.35	0.019
322.56	0.019
322.77	0.019
322.98	0.019
323.19	0.019
323.40	0.019
323.61	0.019
323.82	0.019
324.03	0.019
324.24	0.019
324.45	0.019
324.66	0.019
324.87	0.019
325.08	0.019
325.29	0.019
325.50	0.019
325.71	0.019
325.92	0.019
326.13	0.019
326.34	0.019
326.55	0.019
326.76	0.019
326.97	0.019
327.18	0.019
327.39	0.019
327.60	0.019
327.80	0.019
328.01	0.019
328.22	0.019
328.43	0.019
328.64	0.019
328.85	0.019
329.06	0.019
329.27	0.019
329.48	0.019
329.69	0.019
329.90	0.019
330.11	0.019
330.32	0.020
330.53	0.019
330.74	0.019
330.95	0.019
331.16	0.019
331.37	0.020
331.58	0.020
331.79	0.020
332.00	0.020
332.21	0.020
332.42	0.020
332.63	0.020
332.83	0.020
333.04	0.020
333.25	0.020
333.46	0.020
333.67	0.020
333.88	0.020
334.09	0.020
334.30	0.020
334.51	0.020
334.72	0.020
334.93	0.019
335.14	0.020
335.35	0.020
335.56	0.020
335.77	0.020
335.98	0.020
336.18	0.020
336.39	0.020
336.60	0.020
336.81	0.020
337.02	0.020
337.23	0.020
337.44	0.020
337.65	0.020
337.86	0.020
338.07	0.020
338.28	0.020
338.49	0.020
338.70	0.020
338.91	0.020
339.11	0.020
339.32	0.021
339.53	0.020
339.74	0.021
339.95	0.020
340.16	0.021
340.37	0.021
340.58	0.021
340.79	0.021
341.00	0.020
341.21	0.021
341.41	0.020
341.62	0.020
341.83	0.020
342.04	0.020
342.25	0.020
342.46	0.020
342.67	0.020
342.88	0.020
343.09	0.021
343.30	0.021
343.50	0.021
343.71	0.021
343.92	0.021
344.13	0.021
344.34	0.021
344.55	0.021
344.76	0.021
344.97	0.021
345.18	0.021
345.38	0.021
345.59	0.021
345.80	0.021
346.01	0.021
346.22	0.021
346.43	0.021
346.64	0.021
346.85	0.021
347.06	0.021
347.26	0.021
347.47	0.021
347.68	0.021
347.89	0.021
348.10	0.021
348.31	0.021
348.52	0.021
348.73	0.021
348.93	0.021
349.14	0.021
349.35	0.021
349.56	0.021
349.77	0.021
349.98	0.021
350.19	0.021
350.39	0.021
350.60	0.022
350.81	0.021
351.02	0.021
351.23	0.022
351.44	0.022
351.65	0.022
351.86	0.022
352.06	0.022
352.27	0.022
352.48	0.022
352.69	0.022
352.90	0.022
353.11	0.022
353.31	0.022
353.52	0.022
353.73	0.022
353.94	0.022
354.15	0.022
354.36	0.022
354.57	0.022
354.77	0.022
354.98	0.022
355.19	0.022
355.40	0.022
355.61	0.022
355.82	0.022
356.02	0.022
356.23	0.023
356.44	0.023
356.65	0.023
356.86	0.023
357.07	0.023
357.27	0.023
357.48	0.023
357.69	0.023
357.90	0.023
358.11	0.023
358.32	0.023
358.52	0.023
358.73	0.023
358.94	0.023
359.15	0.023
359.36	0.023
359.56	0.023
359.77	0.023
359.98	0.023
360.19	0.023
360.40	0.023
360.61	0.023
360.81	0.023
361.02	0.023
361.23	0.023
361.44	0.023
361.65	0.023
361.85	0.023
362.06	0.023
362.27	0.023
362.48	0.023
362.69	0.023
362.89	0.023
363.10	0.023
363.31	0.023
363.52	0.023
363.73	0.023
363.93	0.023
364.14	0.023
364.35	0.023
364.56	0.023
364.77	0.023
364.97	0.023
365.18	0.023
365.39	0.023
365.60	0.023
365.81	0.023
366.01	0.023
366.22	0.023
366.43	0.023
366.64	0.023
366.84	0.023
367.05	0.023
367.26	0.024
367.47	0.023
367.68	0.024
367.88	0.024
368.09	0.024
368.30	0.024
368.51	0.024
368.71	0.024
368.92	0.024
369.13	0.024
369.34	0.024
369.55	0.024
369.75	0.024
369.96	0.024
370.17	0.024
370.38	0.024
370.58	0.024
370.79	0.024
371.00	0.024
371.21	0.024
371.41	0.024
371.62	0.024
371.83	0.024
372.04	0.024
372.24	0.024
372.45	0.024
372.66	0.024
372.87	0.024
373.07	0.024
373.28	0.024
373.49	0.024
373.70	0.024
373.90	0.024
374.11	0.024
374.32	0.024
374.53	0.023
374.73	0.023
374.94	0.023
375.15	0.023
375.36	0.024
375.56	0.024
375.77	0.024
375.98	0.024
376.19	0.024
376.39	0.024
376.60	0.024
376.81	0.023
377.02	0.024
377.22	0.024
377.43	0.024
377.64	0.023
377.84	0.023
378.05	0.023
378.26	0.023
378.47	0.023
378.67	0.023
378.88	0.024
379.09	0.024
379.30	0.024
379.50	0.023
379.71	0.023
379.92	0.024
380.12	0.023
380.33	0.023
380.54	0.024
380.75	0.024
380.95	0.024
381.16	0.024
381.37	0.024
381.57	0.024
381.78	0.024
381.99	0.024
382.20	0.024
382.40	0.024
382.61	0.024
382.82	0.024
383.02	0.024
383.23	0.024
383.44	0.024
383.64	0.024
383.85	0.024
384.06	0.024
384.27	0.024
384.47	0.024
384.68	0.024
384.89	0.024
385.09	0.024
385.30	0.023
385.51	0.023
385.71	0.023
385.92	0.023
386.13	0.023
386.33	0.023
386.54	0.023
386.75	0.023
386.95	0.023
387.16	0.023
387.37	0.023
387.58	0.023
387.78	0.023
387.99	0.023
388.20	0.023
388.40	0.024
388.61	0.024
388.82	0.024
389.02	0.024
389.23	0.024
389.44	0.024
389.64	0.024
389.85	0.024
390.06	0.023
390.26	0.023
390.47	0.023
390.68	0.023
390.88	0.023
391.09	0.023
391.30	0.023
391.50	0.023
391.71	0.023
391.92	0.023
392.12	0.023
392.33	0.023
392.53	0.023
392.74	0.023
392.95	0.023
393.15	0.023
393.36	0.024
393.57	0.024
393.77	0.024
393.98	0.024
394.19	0.024
394.39	0.024
394.60	0.024
394.81	0.024
395.01	0.024
395.22	0.024
395.43	0.023
395.63	0.023
395.84	0.023
396.04	0.023
396.25	0.023
396.46	0.023
396.66	0.023
396.87	0.023
397.08	0.023
397.28	0.023
397.49	0.023
397.69	0.023
397.90	0.023
398.11	0.023
398.31	0.023
398.52	0.023
398.73	0.023
398.93	0.023
399.14	0.023
399.34	0.023
399.55	0.023
399.76	0.023
399.96	0.023
400.17	0.023
400.37	0.023
400.58	0.023
400.79	0.023
400.99	0.023
401.20	0.023
401.41	0.023
401.61	0.023
401.82	0.023
402.02	0.023
402.23	0.023
402.44	0.023
402.64	0.023
402.85	0.023
403.05	0.023
403.26	0.023
403.47	0.023
403.67	0.023
403.88	0.023
404.08	0.023
404.29	0.023
404.50	0.023
404.70	0.023
404.91	0.023
405.11	0.023
405.32	0.023
405.52	0.022
405.73	0.022
405.94	0.022
406.14	0.022
406.35	0.022
406.55	0.022
406.76	0.022
406.97	0.022
407.17	0.022
407.38	0.022
407.58	0.022
407.79	0.022
407.99	0.023
408.20	0.023
408.41	0.023
408.61	0.023
408.82	0.022
409.02	0.023
409.23	0.023
409.43	0.023
409.64	0.023
409.84	0.023
410.05	0.023
410.26	0.023
410.46	0.023
410.67	0.023
410.87	0.023
411.08	0.023
411.28	0.023
411.49	0.023
411.69	0.023
411.90	0.023
412.11	0.023
412.31	0.022
412.52	0.022
412.72	0.022
412.93	0.022
413.13	0.022
413.34	0.022
413.54	0.022
413.75	0.022
413.95	0.022
414.16	0.022
414.37	0.022
414.57	0.022
414.78	0.022
414.98	0.022
415.19	0.022
415.39	0.022
415.60	0.022
415.80	0.022
416.01	0.022
416.21	0.022
416.42	0.022
416.62	0.022
416.83	0.022
417.03	0.022
417.24	0.022
417.44	0.022
417.65	0.022
417.86	0.022
418.06	0.022
418.27	0.022
418.47	0.022
418.68	0.022
418.88	0.022
419.09	0.022
419.29	0.021
419.50	0.021
419.70	0.021
419.91	0.021
420.11	0.021
420.32	0.021
420.52	0.021
420.73	0.021
420.93	0.021
421.14	0.021
421.34	0.021
421.55	0.021
421.75	0.021
421.96	0.021
422.16	0.021
422.37	0.021
422.57	0.021
422.78	0.021
422.98	0.021
423.19	0.022
423.39	0.022
423.60	0.022
423.80	0.022
424.01	0.022
424.21	0.022
424.42	0.022
424.62	0.022
424.83	0.022
425.03	0.022
425.23	0.022
425.44	0.022
425.64	0.022
425.85	0.022
426.05	0.022
426.26	0.022
426.46	0.022
426.67	0.022
426.87	0.022
427.08	0.021
427.28	0.021
427.49	0.021
427.69	0.021
427.90	0.021
428.10	0.021
428.31	0.021
428.51	0.021
428.71	0.021
428.92	0.021
429.12	0.021
429.33	0.021
429.53	0.021
429.74	0.021
429.94	0.021
430.15	0.021
430.35	0.022
430.56	0.022
430.76	0.022
430.96	0.022
431.17	0.022
431.37	0.022
431.58	0.022
431.78	0.022
431.99	0.022
432.19	0.022
432.40	0.022
432.60	0.022
432.80	0.022
433.01	0.022
433.21	0.022
433.42	0.022
433.62	0.022
433.83	0.022
434.03	0.022
434.23	0.022
434.44	0.022
434.64	0.022
434.85	0.022
435.05	0.021
435.26	0.021
435.46	0.021
435.66	0.021
435.87	0.021
436.07	0.021
436.28	0.021
436.48	0.021
436.69	0.021
436.89	0.021
437.09	0.021
437.30	0.021
437.50	0.021
437.71	0.021
437.91	0.021
438.11	0.021
438.32	0.021
438.52	0.021
438.73	0.021
438.93	0.021
439.13	0.021
439.34	0.021
439.54	0.021
439.75	0.021
439.95	0.021
440.15	0.021
440.36	0.021
440.56	0.021
440.77	0.021
440.97	0.021
441.17	0.021
441.38	0.021
441.58	0.021
441.79	0.021
441.99	0.021
442.19	0.021
442.40	0.021
442.60	0.021
442.81	0.021
443.01	0.021
443.21	0.021
443.42	0.021
443.62	0.021
443.82	0.021
444.03	0.021
444.23	0.021
444.44	0.021
444.64	0.021
444.84	0.021
445.05	0.021
445.25	0.021
445.45	0.021
445.66	0.021
445.86	0.021
446.06	0.021
446.27	0.021
446.47	0.021
446.68	0.021
446.88	0.021
447.08	0.021
447.29	0.021
447.49	0.021
447.69	0.021
447.90	0.021
448.10	0.021
448.30	0.021
448.51	0.021
448.71	0.021
448.91	0.021
449.12	0.021
449.32	0.021
449.52	0.021
449.73	0.021
449.93	0.021
450.14	0.021
450.34	0.021
450.54	0.021
450.75	0.021
450.95	0.021
451.15	0.021
451.36	0.021
451.56	0.021
451.76	0.021
451.97	0.021
452.17	0.021
452.37	0.021
452.58	0.021
452.78	0.021
452.98	0.021
453.19	0.021
453.39	0.021
453.59	0.021
453.79	0.021
454.00	0.021
454.20	0.021
454.40	0.021
454.61	0.021
454.81	0.021
455.01	0.021
455.22	0.021
455.42	0.021
455.62	0.021
455.83	0.021
456.03	0.021
456.23	0.021
456.44	0.021
456.64	0.021
456.84	0.021
457.04	0.021
457.25	0.021
457.45	0.021
457.65	0.021
457.86	0.020
458.06	0.020
458.26	0.020
458.47	0.020
458.67	0.020
458.87	0.020
459.07	0.020
459.28	0.020
459.48	0.020
459.68	0.020
459.89	0.020
460.09	0.021
460.29	0.021
460.49	0.021
460.70	0.021
460.90	0.021
461.10	0.021
461.31	0.021
461.51	0.021
461.71	0.021
461.91	0.021
462.12	0.021
462.32	0.021
462.52	0.021
462.72	0.021
462.93	0.020
463.13	0.020
463.33	0.020
463.53	0.020
463.74	0.020
463.94	0.020
464.14	0.020
464.35	0.020
464.55	0.020
464.75	0.020
464.95	0.020
465.16	0.020
