SpectraSuite Data File
++++++++++++++++++++++++++++++++++++
Date: Mon Jun 15 09:01:48 PDT 2015
User: introlabs
Dark Spectrum Present: Yes
Reference Spectrum Present: Yes
Number of Sampled Component Spectra: 1
Spectrometers: USB4H08886
Integration Time (usec): 44366 (USB4H08886)
Spectra Averaged: 20 (USB4H08886)
Boxcar Smoothing: 5 (USB4H08886)
Correct for Electrical Dark: Yes (USB4H08886)
Strobe/Lamp Enabled: No (USB4H08886)
Correct for Detector Non-linearity: Yes (USB4H08886)
Correct for Stray Light: Yes (USB4H08886)
Number of Pixels in Processed Spectrum: 3648
>>>>>Begin Processed Spectral Data<<<<<
178.14	0.232
178.36	0.232
178.57	0.232
178.79	0.308
179.01	-0.648
179.22	-0.112
179.44	-0.541
179.65	-0.000
179.87	-0.000
180.08	-0.000
180.30	1.008
180.52	0.605
180.73	0.185
180.95	0.094
181.16	0.080
181.38	0.061
181.59	0.040
181.81	0.022
182.03	0.031
182.24	0.053
182.46	0.034
182.67	0.044
182.89	0.046
183.10	0.051
183.32	0.047
183.54	0.035
183.75	0.037
183.97	0.045
184.18	0.040
184.40	0.027
184.61	0.024
184.83	0.032
185.04	0.030
185.26	0.030
185.48	0.021
185.69	0.024
185.91	0.027
186.12	0.018
186.34	0.021
186.55	0.010
186.77	0.011
186.98	0.009
187.20	0.005
187.42	0.004
187.63	-0.004
187.85	0.005
188.06	0.004
188.28	0.003
188.49	0.011
188.71	-0.003
188.92	0.002
189.14	-0.007
189.36	-0.002
189.57	0.001
189.79	-0.006
190.00	-0.004
190.22	-0.009
190.43	-0.001
190.65	-0.008
190.86	-0.005
191.08	-0.003
191.29	0.002
191.51	0.009
191.72	0.002
191.94	0.002
192.16	0.012
192.37	0.010
192.59	0.007
192.80	-0.001
193.02	0.008
193.23	0.008
193.45	0.007
193.66	0.006
193.88	0.001
194.09	-0.003
194.31	-0.006
194.52	-0.010
194.74	-0.002
194.95	-0.001
195.17	0.003
195.38	-0.003
195.60	-0.010
195.81	-0.001
196.03	0.001
196.25	0.016
196.46	0.017
196.68	0.010
196.89	0.008
197.11	0.005
197.32	0.005
197.54	-0.002
197.75	0.012
197.97	0.014
198.18	0.010
198.40	0.012
198.61	0.002
198.83	0.002
199.04	0.005
199.26	0.002
199.47	-0.004
199.69	-0.004
199.90	0.008
200.12	0.000
200.33	0.003
200.55	0.006
200.76	0.002
200.98	0.001
201.19	0.001
201.41	-0.000
201.62	0.006
201.84	0.014
202.05	0.019
202.27	0.006
202.48	0.003
202.70	0.003
202.91	0.002
203.13	-0.004
203.34	-0.008
203.56	-0.006
203.77	0.001
203.99	-0.007
204.20	-0.014
204.42	-0.026
204.63	-0.017
204.85	-0.018
205.06	-0.019
205.28	-0.016
205.49	-0.008
205.71	0.008
205.92	0.008
206.14	0.005
206.35	0.018
206.56	0.027
206.78	0.033
206.99	0.043
207.21	0.047
207.42	0.043
207.64	0.038
207.85	0.038
208.07	0.035
208.28	0.041
208.50	0.043
208.71	0.042
208.93	0.041
209.14	0.040
209.36	0.030
209.57	0.031
209.79	0.040
210.00	0.042
210.22	0.042
210.43	0.041
210.64	0.036
210.86	0.035
211.07	0.025
211.29	0.019
211.50	0.017
211.72	0.014
211.93	0.013
212.15	0.004
212.36	-0.000
212.58	-0.001
212.79	-0.005
213.01	-0.011
213.22	-0.005
213.43	-0.006
213.65	-0.008
213.86	-0.012
214.08	-0.008
214.29	-0.004
214.51	0.000
214.72	-0.001
214.94	-0.006
215.15	-0.002
215.36	-0.002
215.58	-0.011
215.79	-0.006
216.01	-0.001
216.22	0.006
216.44	0.001
216.65	-0.008
216.87	-0.006
217.08	-0.003
217.29	0.008
217.51	0.001
217.72	0.002
217.94	0.006
218.15	0.012
218.37	0.005
218.58	0.007
218.80	0.011
219.01	0.009
219.22	0.004
219.44	0.003
219.65	-0.005
219.87	0.002
220.08	0.002
220.30	-0.005
220.51	-0.011
220.72	-0.006
220.94	-0.011
221.15	-0.012
221.37	-0.012
221.58	-0.010
221.79	-0.004
222.01	-0.012
222.22	-0.019
222.44	-0.021
222.65	-0.021
222.87	-0.023
223.08	-0.024
223.29	-0.023
223.51	-0.025
223.72	-0.018
223.94	-0.023
224.15	-0.029
224.36	-0.021
224.58	-0.022
224.79	-0.013
225.01	-0.014
225.22	-0.012
225.44	-0.012
225.65	-0.012
225.86	-0.007
226.08	-0.009
226.29	-0.009
226.51	-0.007
226.72	-0.008
226.93	-0.004
227.15	-0.014
227.36	-0.016
227.58	-0.019
227.79	-0.018
228.00	-0.019
228.22	-0.027
228.43	-0.031
228.65	-0.031
228.86	-0.030
229.07	-0.030
229.29	-0.031
229.50	-0.028
229.72	-0.025
229.93	-0.024
230.14	-0.023
230.36	-0.023
230.57	-0.022
230.78	-0.022
231.00	-0.026
231.21	-0.030
231.43	-0.030
231.64	-0.030
231.85	-0.028
232.07	-0.028
232.28	-0.031
232.50	-0.034
232.71	-0.036
232.92	-0.036
233.14	-0.037
233.35	-0.032
233.56	-0.032
233.78	-0.034
233.99	-0.034
234.21	-0.036
234.42	-0.036
234.63	-0.035
234.85	-0.036
235.06	-0.035
235.27	-0.035
235.49	-0.033
235.70	-0.035
235.91	-0.036
236.13	-0.035
236.34	-0.037
236.56	-0.037
236.77	-0.036
236.98	-0.036
237.20	-0.035
237.41	-0.036
237.62	-0.035
237.84	-0.035
238.05	-0.034
238.26	-0.035
238.48	-0.035
238.69	-0.032
238.91	-0.033
239.12	-0.033
239.33	-0.033
239.55	-0.032
239.76	-0.032
239.97	-0.031
240.19	-0.030
240.40	-0.030
240.61	-0.028
240.83	-0.028
241.04	-0.028
241.25	-0.027
241.47	-0.026
241.68	-0.024
241.89	-0.024
242.11	-0.024
242.32	-0.024
242.53	-0.024
242.75	-0.023
242.96	-0.023
243.17	-0.022
243.39	-0.022
243.60	-0.022
243.81	-0.022
244.03	-0.022
244.24	-0.021
244.45	-0.020
244.67	-0.020
244.88	-0.019
245.09	-0.018
245.31	-0.017
245.52	-0.017
245.73	-0.017
245.95	-0.016
246.16	-0.015
246.37	-0.015
246.59	-0.014
246.80	-0.014
247.01	-0.014
247.23	-0.013
247.44	-0.014
247.65	-0.014
247.87	-0.013
248.08	-0.013
248.29	-0.013
248.51	-0.013
248.72	-0.013
248.93	-0.013
249.15	-0.013
249.36	-0.013
249.57	-0.013
249.78	-0.013
250.00	-0.012
250.21	-0.012
250.42	-0.012
250.64	-0.011
250.85	-0.011
251.06	-0.011
251.28	-0.011
251.49	-0.011
251.70	-0.010
251.92	-0.010
252.13	-0.009
252.34	-0.009
252.55	-0.009
252.77	-0.009
252.98	-0.009
253.19	-0.009
253.41	-0.008
253.62	-0.008
253.83	-0.008
254.05	-0.008
254.26	-0.008
254.47	-0.008
254.68	-0.008
254.90	-0.008
255.11	-0.007
255.32	-0.006
255.54	-0.006
255.75	-0.006
255.96	-0.006
256.17	-0.006
256.39	-0.006
256.60	-0.006
256.81	-0.006
257.03	-0.005
257.24	-0.006
257.45	-0.006
257.66	-0.006
257.88	-0.006
258.09	-0.006
258.30	-0.007
258.51	-0.007
258.73	-0.007
258.94	-0.007
259.15	-0.007
259.37	-0.007
259.58	-0.007
259.79	-0.008
260.00	-0.007
260.22	-0.007
260.43	-0.007
260.64	-0.007
260.85	-0.007
261.07	-0.008
261.28	-0.008
261.49	-0.008
261.71	-0.008
261.92	-0.007
262.13	-0.008
262.34	-0.008
262.56	-0.008
262.77	-0.008
262.98	-0.008
263.19	-0.008
263.41	-0.009
263.62	-0.009
263.83	-0.009
264.04	-0.010
264.26	-0.010
264.47	-0.011
264.68	-0.011
264.89	-0.011
265.11	-0.011
265.32	-0.011
265.53	-0.011
265.74	-0.011
265.96	-0.011
266.17	-0.011
266.38	-0.011
266.59	-0.011
266.81	-0.011
267.02	-0.011
267.23	-0.012
267.44	-0.012
267.65	-0.013
267.87	-0.013
268.08	-0.014
268.29	-0.014
268.50	-0.014
268.72	-0.014
268.93	-0.014
269.14	-0.014
269.35	-0.014
269.57	-0.014
269.78	-0.014
269.99	-0.014
270.20	-0.014
270.41	-0.015
270.63	-0.015
270.84	-0.015
271.05	-0.015
271.26	-0.016
271.48	-0.016
271.69	-0.016
271.90	-0.017
272.11	-0.017
272.32	-0.017
272.54	-0.018
272.75	-0.018
272.96	-0.018
273.17	-0.018
273.39	-0.018
273.60	-0.018
273.81	-0.018
274.02	-0.018
274.23	-0.018
274.45	-0.018
274.66	-0.018
274.87	-0.018
275.08	-0.018
275.29	-0.018
275.51	-0.018
275.72	-0.019
275.93	-0.018
276.14	-0.018
276.35	-0.018
276.57	-0.018
276.78	-0.018
276.99	-0.018
277.20	-0.018
277.41	-0.018
277.63	-0.018
277.84	-0.018
278.05	-0.018
278.26	-0.018
278.47	-0.018
278.69	-0.018
278.90	-0.017
279.11	-0.017
279.32	-0.017
279.53	-0.017
279.74	-0.017
279.96	-0.017
280.17	-0.017
280.38	-0.016
280.59	-0.016
280.80	-0.016
281.02	-0.016
281.23	-0.016
281.44	-0.016
281.65	-0.015
281.86	-0.015
282.07	-0.015
282.29	-0.015
282.50	-0.015
282.71	-0.015
282.92	-0.014
283.13	-0.014
283.35	-0.014
283.56	-0.014
283.77	-0.014
283.98	-0.013
284.19	-0.013
284.40	-0.012
284.62	-0.012
284.83	-0.012
285.04	-0.012
285.25	-0.011
285.46	-0.011
285.67	-0.010
285.88	-0.010
286.10	-0.010
286.31	-0.009
286.52	-0.009
286.73	-0.008
286.94	-0.007
287.15	-0.007
287.37	-0.006
287.58	-0.005
287.79	-0.005
288.00	-0.004
288.21	-0.004
288.42	-0.003
288.63	-0.003
288.85	-0.002
289.06	-0.002
289.27	-0.001
289.48	-0.001
289.69	-0.001
289.90	-0.000
290.11	0.000
290.33	0.000
290.54	0.001
290.75	0.001
290.96	0.001
291.17	0.002
291.38	0.002
291.59	0.002
291.81	0.002
292.02	0.003
292.23	0.003
292.44	0.003
292.65	0.004
292.86	0.004
293.07	0.004
293.28	0.004
293.50	0.004
293.71	0.005
293.92	0.005
294.13	0.005
294.34	0.005
294.55	0.005
294.76	0.005
294.97	0.005
295.19	0.005
295.40	0.005
295.61	0.006
295.82	0.006
296.03	0.006
296.24	0.006
296.45	0.006
296.66	0.006
296.87	0.006
297.09	0.006
297.30	0.006
297.51	0.006
297.72	0.006
297.93	0.007
298.14	0.007
298.35	0.007
298.56	0.007
298.77	0.007
298.99	0.007
299.20	0.007
299.41	0.007
299.62	0.007
299.83	0.007
300.04	0.007
300.25	0.007
300.46	0.007
300.67	0.007
300.88	0.007
301.10	0.007
301.31	0.007
301.52	0.007
301.73	0.007
301.94	0.007
302.15	0.007
302.36	0.007
302.57	0.007
302.78	0.007
302.99	0.007
303.20	0.007
303.41	0.007
303.63	0.007
303.84	0.007
304.05	0.007
304.26	0.007
304.47	0.007
304.68	0.007
304.89	0.008
305.10	0.008
305.31	0.008
305.52	0.008
305.73	0.008
305.94	0.008
306.15	0.008
306.37	0.008
306.58	0.008
306.79	0.008
307.00	0.008
307.21	0.008
307.42	0.008
307.63	0.008
307.84	0.008
308.05	0.008
308.26	0.008
308.47	0.008
308.68	0.008
308.89	0.008
309.10	0.008
309.31	0.008
309.52	0.008
309.73	0.008
309.95	0.008
310.16	0.008
310.37	0.008
310.58	0.008
310.79	0.008
311.00	0.008
311.21	0.008
311.42	0.008
311.63	0.009
311.84	0.009
312.05	0.009
312.26	0.009
312.47	0.009
312.68	0.009
312.89	0.009
313.10	0.009
313.31	0.009
313.52	0.009
313.73	0.010
313.94	0.010
314.15	0.010
314.36	0.010
314.57	0.010
314.78	0.010
314.99	0.010
315.21	0.010
315.42	0.010
315.63	0.010
315.84	0.010
316.05	0.010
316.26	0.010
316.47	0.009
316.68	0.010
316.89	0.010
317.10	0.010
317.31	0.010
317.52	0.010
317.73	0.010
317.94	0.010
318.15	0.010
318.36	0.010
318.57	0.010
318.78	0.010
318.99	0.010
319.20	0.010
319.41	0.010
319.62	0.010
319.83	0.010
320.04	0.010
320.25	0.010
320.46	0.010
320.67	0.010
320.88	0.010
321.09	0.010
321.30	0.010
321.51	0.010
321.72	0.010
321.93	0.010
322.14	0.010
322.35	0.010
322.56	0.010
322.77	0.010
322.98	0.010
323.19	0.010
323.40	0.010
323.61	0.010
323.82	0.010
324.03	0.011
324.24	0.011
324.45	0.011
324.66	0.011
324.87	0.010
325.08	0.011
325.29	0.010
325.50	0.010
325.71	0.010
325.92	0.010
326.13	0.010
326.34	0.010
326.55	0.010
326.76	0.010
326.97	0.010
327.18	0.010
327.39	0.010
327.60	0.010
327.80	0.010
328.01	0.010
328.22	0.010
328.43	0.010
328.64	0.010
328.85	0.010
329.06	0.010
329.27	0.010
329.48	0.010
329.69	0.010
329.90	0.010
330.11	0.010
330.32	0.010
330.53	0.010
330.74	0.010
330.95	0.010
331.16	0.010
331.37	0.010
331.58	0.010
331.79	0.010
332.00	0.010
332.21	0.010
332.42	0.010
332.63	0.010
332.83	0.010
333.04	0.010
333.25	0.010
333.46	0.010
333.67	0.010
333.88	0.010
334.09	0.010
334.30	0.010
334.51	0.010
334.72	0.010
334.93	0.009
335.14	0.009
335.35	0.009
335.56	0.009
335.77	0.009
335.98	0.009
336.18	0.009
336.39	0.009
336.60	0.009
336.81	0.009
337.02	0.009
337.23	0.009
337.44	0.009
337.65	0.009
337.86	0.009
338.07	0.009
338.28	0.009
338.49	0.008
338.70	0.008
338.91	0.008
339.11	0.008
339.32	0.008
339.53	0.008
339.74	0.008
339.95	0.008
340.16	0.008
340.37	0.008
340.58	0.008
340.79	0.008
341.00	0.008
341.21	0.008
341.41	0.008
341.62	0.007
341.83	0.007
342.04	0.007
342.25	0.007
342.46	0.007
342.67	0.007
342.88	0.007
343.09	0.007
343.30	0.007
343.50	0.007
343.71	0.007
343.92	0.007
344.13	0.007
344.34	0.007
344.55	0.007
344.76	0.007
344.97	0.006
345.18	0.006
345.38	0.006
345.59	0.006
345.80	0.006
346.01	0.006
346.22	0.006
346.43	0.006
346.64	0.006
346.85	0.006
347.06	0.006
347.26	0.006
347.47	0.006
347.68	0.006
347.89	0.006
348.10	0.005
348.31	0.005
348.52	0.005
348.73	0.005
348.93	0.005
349.14	0.005
349.35	0.005
349.56	0.005
349.77	0.005
349.98	0.005
350.19	0.005
350.39	0.005
350.60	0.005
350.81	0.005
351.02	0.005
351.23	0.005
351.44	0.005
351.65	0.005
351.86	0.005
352.06	0.005
352.27	0.005
352.48	0.005
352.69	0.005
352.90	0.005
353.11	0.005
353.31	0.005
353.52	0.005
353.73	0.005
353.94	0.004
354.15	0.004
354.36	0.004
354.57	0.004
354.77	0.004
354.98	0.004
355.19	0.004
355.40	0.004
355.61	0.004
355.82	0.004
356.02	0.004
356.23	0.004
356.44	0.004
356.65	0.004
356.86	0.004
357.07	0.004
357.27	0.004
357.48	0.004
357.69	0.004
357.90	0.004
358.11	0.004
358.32	0.004
358.52	0.004
358.73	0.004
358.94	0.004
359.15	0.004
359.36	0.004
359.56	0.004
359.77	0.004
359.98	0.004
360.19	0.004
360.40	0.003
360.61	0.003
360.81	0.003
361.02	0.004
361.23	0.004
361.44	0.004
361.65	0.004
361.85	0.004
362.06	0.003
362.27	0.004
362.48	0.004
362.69	0.003
362.89	0.004
363.10	0.004
363.31	0.004
363.52	0.003
363.73	0.003
363.93	0.003
364.14	0.003
364.35	0.003
364.56	0.003
364.77	0.003
364.97	0.003
365.18	0.003
365.39	0.003
365.60	0.003
365.81	0.003
366.01	0.003
366.22	0.003
366.43	0.003
366.64	0.003
366.84	0.003
367.05	0.003
367.26	0.003
367.47	0.003
367.68	0.003
367.88	0.003
368.09	0.003
368.30	0.003
368.51	0.003
368.71	0.003
368.92	0.003
369.13	0.003
369.34	0.003
369.55	0.003
369.75	0.003
369.96	0.003
370.17	0.003
370.38	0.003
370.58	0.003
370.79	0.003
371.00	0.003
371.21	0.003
371.41	0.003
371.62	0.003
371.83	0.003
372.04	0.003
372.24	0.003
372.45	0.003
372.66	0.003
372.87	0.003
373.07	0.003
373.28	0.003
373.49	0.003
373.70	0.003
373.90	0.003
374.11	0.003
374.32	0.003
374.53	0.003
374.73	0.003
374.94	0.003
375.15	0.003
375.36	0.003
375.56	0.003
375.77	0.003
375.98	0.003
376.19	0.002
376.39	0.002
376.60	0.002
376.81	0.002
377.02	0.002
377.22	0.002
377.43	0.002
377.64	0.002
377.84	0.002
378.05	0.002
378.26	0.002
378.47	0.002
378.67	0.002
378.88	0.002
379.09	0.002
379.30	0.002
379.50	0.002
379.71	0.002
379.92	0.002
380.12	0.002
380.33	0.002
380.54	0.002
380.75	0.002
380.95	0.002
381.16	0.002
381.37	0.002
381.57	0.002
381.78	0.002
381.99	0.002
382.20	0.002
382.40	0.002
382.61	0.002
382.82	0.002
383.02	0.002
383.23	0.002
383.44	0.002
383.64	0.002
383.85	0.002
384.06	0.002
384.27	0.002
384.47	0.002
384.68	0.002
384.89	0.002
385.09	0.002
385.30	0.002
385.51	0.002
385.71	0.002
385.92	0.002
386.13	0.002
386.33	0.001
386.54	0.001
386.75	0.001
386.95	0.001
387.16	0.001
387.37	0.001
387.58	0.002
387.78	0.002
387.99	0.002
388.20	0.002
388.40	0.002
388.61	0.002
388.82	0.002
389.02	0.002
389.23	0.001
389.44	0.002
389.64	0.002
389.85	0.001
390.06	0.001
390.26	0.001
390.47	0.001
390.68	0.001
390.88	0.001
391.09	0.001
391.30	0.001
391.50	0.001
391.71	0.001
391.92	0.001
392.12	0.001
392.33	0.001
392.53	0.001
392.74	0.002
392.95	0.001
393.15	0.001
393.36	0.002
393.57	0.001
393.77	0.001
393.98	0.001
394.19	0.001
394.39	0.002
394.60	0.002
394.81	0.001
395.01	0.001
395.22	0.001
395.43	0.001
395.63	0.001
395.84	0.001
396.04	0.001
396.25	0.001
396.46	0.001
396.66	0.001
396.87	0.001
397.08	0.001
397.28	0.001
397.49	0.001
397.69	0.001
397.90	0.001
398.11	0.001
398.31	0.001
398.52	0.001
398.73	0.001
398.93	0.001
399.14	0.001
399.34	0.001
399.55	0.001
399.76	0.001
399.96	0.001
400.17	0.001
400.37	0.001
400.58	0.001
400.79	0.001
400.99	0.001
401.20	0.001
401.41	0.001
401.61	0.001
401.82	0.001
402.02	0.001
402.23	0.001
402.44	0.001
402.64	0.001
402.85	0.001
403.05	0.001
403.26	0.001
403.47	0.001
403.67	0.001
403.88	0.001
404.08	0.001
404.29	0.001
404.50	0.001
404.70	0.000
404.91	0.001
405.11	0.001
405.32	0.000
405.52	0.000
405.73	0.000
405.94	0.000
406.14	0.000
406.35	0.000
406.55	0.000
406.76	0.000
406.97	0.000
407.17	0.000
407.38	0.000
407.58	0.000
407.79	0.000
407.99	0.000
408.20	0.001
408.41	0.001
408.61	0.001
408.82	0.001
409.02	0.001
409.23	0.001
409.43	0.001
409.64	0.001
409.84	0.001
410.05	0.001
410.26	0.001
410.46	0.001
410.67	0.000
410.87	0.000
411.08	0.000
411.28	0.000
411.49	0.000
411.69	0.000
411.90	0.000
412.11	0.000
412.31	0.000
412.52	0.000
412.72	0.000
412.93	0.000
413.13	0.000
413.34	0.000
413.54	0.000
413.75	0.000
413.95	0.000
414.16	0.000
414.37	0.000
414.57	0.000
414.78	0.000
414.98	0.000
415.19	0.000
415.39	0.000
415.60	0.000
415.80	0.000
416.01	0.000
416.21	0.000
416.42	0.000
416.62	0.000
416.83	-0.000
417.03	-0.000
417.24	-0.000
417.44	-0.000
417.65	-0.000
417.86	-0.000
418.06	-0.000
418.27	-0.000
418.47	-0.000
418.68	-0.000
418.88	-0.000
419.09	-0.000
419.29	-0.000
419.50	-0.001
419.70	-0.001
419.91	-0.000
420.11	-0.000
420.32	-0.000
420.52	-0.000
420.73	-0.000
420.93	-0.000
421.14	-0.000
421.34	-0.000
421.55	-0.000
421.75	-0.000
421.96	-0.000
422.16	-0.000
422.37	-0.000
422.57	-0.000
422.78	-0.000
422.98	-0.000
423.19	-0.000
423.39	-0.000
423.60	-0.000
423.80	-0.000
424.01	-0.000
424.21	-0.000
424.42	0.000
424.62	0.000
424.83	0.000
425.03	-0.000
425.23	-0.000
425.44	-0.000
425.64	-0.000
425.85	-0.000
426.05	-0.000
426.26	-0.000
426.46	-0.000
426.67	-0.000
426.87	-0.000
427.08	-0.000
427.28	-0.000
427.49	-0.001
427.69	-0.001
427.90	-0.001
428.10	-0.001
428.31	-0.001
428.51	-0.001
428.71	-0.001
428.92	-0.001
429.12	-0.000
429.33	-0.000
429.53	-0.000
429.74	-0.000
429.94	-0.000
430.15	-0.000
430.35	-0.000
430.56	-0.000
430.76	-0.000
430.96	-0.000
431.17	-0.000
431.37	-0.000
431.58	-0.000
431.78	-0.000
431.99	0.000
432.19	0.000
432.40	-0.000
432.60	-0.000
432.80	-0.000
433.01	-0.000
433.21	-0.000
433.42	-0.000
433.62	-0.000
433.83	-0.001
434.03	-0.000
434.23	-0.001
434.44	-0.001
434.64	-0.000
434.85	-0.000
435.05	-0.001
435.26	-0.001
435.46	-0.001
435.66	-0.001
435.87	-0.001
436.07	-0.001
436.28	-0.001
436.48	-0.001
436.69	-0.001
436.89	-0.001
437.09	-0.001
437.30	-0.001
437.50	-0.001
437.71	-0.001
437.91	-0.001
438.11	-0.001
438.32	-0.001
438.52	-0.001
438.73	-0.001
438.93	-0.001
439.13	-0.001
439.34	-0.001
439.54	-0.001
439.75	-0.001
439.95	-0.001
440.15	-0.001
440.36	-0.001
440.56	-0.001
440.77	-0.001
440.97	-0.001
441.17	-0.001
441.38	-0.001
441.58	-0.001
441.79	-0.001
441.99	-0.001
442.19	-0.001
442.40	-0.001
442.60	-0.001
442.81	-0.001
443.01	-0.001
443.21	-0.001
443.42	-0.001
443.62	-0.001
443.82	-0.001
444.03	-0.001
444.23	-0.001
444.44	-0.001
444.64	-0.001
444.84	-0.001
445.05	-0.001
445.25	-0.001
445.45	-0.001
445.66	-0.001
445.86	-0.001
446.06	-0.001
446.27	-0.001
446.47	-0.001
446.68	-0.001
446.88	-0.001
447.08	-0.001
447.29	-0.001
447.49	-0.001
447.69	-0.001
447.90	-0.001
448.10	-0.001
448.30	-0.001
448.51	-0.001
448.71	-0.001
448.91	-0.000
449.12	-0.000
449.32	-0.000
449.52	-0.000
449.73	-0.000
449.93	-0.000
450.14	-0.000
450.34	-0.000
450.54	-0.001
450.75	-0.001
450.95	-0.000
451.15	-0.001
451.36	-0.001
451.56	-0.001
451.76	-0.001
451.97	-0.001
452.17	-0.001
452.37	-0.001
452.58	-0.001
452.78	-0.001
452.98	-0.001
453.19	-0.001
453.39	-0.001
453.59	-0.001
453.79	-0.001
454.00	-0.001
454.20	-0.001
454.40	-0.001
454.61	-0.001
454.81	-0.001
455.01	-0.001
455.22	-0.001
455.42	-0.001
455.62	-0.001
455.83	-0.001
456.03	-0.001
456.23	-0.001
456.44	-0.001
456.64	-0.000
456.84	-0.000
457.04	-0.001
457.25	-0.001
457.45	-0.001
457.65	-0.001
457.86	-0.001
458.06	-0.001
458.26	-0.001
458.47	-0.001
458.67	-0.001
458.87	-0.001
459.07	-0.001
459.28	-0.001
