SpectraSuite Data File
++++++++++++++++++++++++++++++++++++
Date: Mon Jun 15 09:53:19 PDT 2015
User: introlabs
Dark Spectrum Present: Yes
Reference Spectrum Present: Yes
Number of Sampled Component Spectra: 1
Spectrometers: USB4H08886
Integration Time (usec): 44366 (USB4H08886)
Spectra Averaged: 20 (USB4H08886)
Boxcar Smoothing: 5 (USB4H08886)
Correct for Electrical Dark: Yes (USB4H08886)
Strobe/Lamp Enabled: No (USB4H08886)
Correct for Detector Non-linearity: Yes (USB4H08886)
Correct for Stray Light: Yes (USB4H08886)
Number of Pixels in Processed Spectrum: 3648
>>>>>Begin Processed Spectral Data<<<<<
178.14	0.313
178.36	0.313
178.57	0.313
178.79	-0.000
179.01	-0.776
179.22	0.009
179.44	-0.434
179.65	-0.000
179.87	-0.000
180.08	-0.000
180.30	-0.000
180.52	-0.000
180.73	0.459
180.95	0.084
181.16	0.112
181.38	0.091
181.59	0.123
181.81	0.106
182.03	0.119
182.24	0.126
182.46	0.133
182.67	0.121
182.89	0.121
183.10	0.130
183.32	0.135
183.54	0.128
183.75	0.123
183.97	0.128
184.18	0.139
184.40	0.131
184.61	0.137
184.83	0.137
185.04	0.139
185.26	0.140
185.48	0.141
185.69	0.143
185.91	0.144
186.12	0.142
186.34	0.137
186.55	0.119
186.77	0.119
186.98	0.104
187.20	0.092
187.42	0.097
187.63	0.102
187.85	0.105
188.06	0.104
188.28	0.101
188.49	0.107
188.71	0.101
188.92	0.101
189.14	0.097
189.36	0.107
189.57	0.111
189.79	0.106
190.00	0.089
190.22	0.088
190.43	0.082
190.65	0.079
190.86	0.084
191.08	0.083
191.29	0.090
191.51	0.088
191.72	0.082
191.94	0.086
192.16	0.091
192.37	0.102
192.59	0.099
192.80	0.101
193.02	0.109
193.23	0.102
193.45	0.106
193.66	0.099
193.88	0.105
194.09	0.110
194.31	0.111
194.52	0.111
194.74	0.111
194.95	0.108
195.17	0.120
195.38	0.112
195.60	0.108
195.81	0.117
196.03	0.120
196.25	0.124
196.46	0.120
196.68	0.125
196.89	0.118
197.11	0.114
197.32	0.117
197.54	0.103
197.75	0.120
197.97	0.117
198.18	0.104
198.40	0.106
198.61	0.103
198.83	0.096
199.04	0.100
199.26	0.108
199.47	0.108
199.69	0.107
199.90	0.118
200.12	0.108
200.33	0.119
200.55	0.121
200.76	0.113
200.98	0.115
201.19	0.110
201.41	0.098
201.62	0.097
201.84	0.098
202.05	0.100
202.27	0.089
202.48	0.088
202.70	0.093
202.91	0.095
203.13	0.094
203.34	0.091
203.56	0.099
203.77	0.101
203.99	0.097
204.20	0.100
204.42	0.093
204.63	0.102
204.85	0.102
205.06	0.101
205.28	0.102
205.49	0.105
205.71	0.115
205.92	0.115
206.14	0.112
206.35	0.115
206.56	0.115
206.78	0.118
206.99	0.118
207.21	0.127
207.42	0.121
207.64	0.117
207.85	0.121
208.07	0.116
208.28	0.124
208.50	0.127
208.71	0.127
208.93	0.143
209.14	0.145
209.36	0.137
209.57	0.135
209.79	0.142
210.00	0.147
210.22	0.148
210.43	0.141
210.64	0.133
210.86	0.134
211.07	0.132
211.29	0.118
211.50	0.116
211.72	0.114
211.93	0.103
212.15	0.099
212.36	0.099
212.58	0.100
212.79	0.104
213.01	0.105
213.22	0.104
213.43	0.099
213.65	0.104
213.86	0.103
214.08	0.113
214.29	0.117
214.51	0.115
214.72	0.113
214.94	0.104
215.15	0.105
215.36	0.107
215.58	0.109
215.79	0.106
216.01	0.098
216.22	0.103
216.44	0.101
216.65	0.102
216.87	0.108
217.08	0.105
217.29	0.115
217.51	0.118
217.72	0.109
217.94	0.112
218.15	0.123
218.37	0.125
218.58	0.115
218.80	0.121
219.01	0.116
219.22	0.112
219.44	0.115
219.65	0.110
219.87	0.112
220.08	0.114
220.30	0.108
220.51	0.108
220.72	0.113
220.94	0.119
221.15	0.114
221.37	0.120
221.58	0.127
221.79	0.133
222.01	0.133
222.22	0.127
222.44	0.139
222.65	0.146
222.87	0.143
223.08	0.146
223.29	0.143
223.51	0.148
223.72	0.150
223.94	0.144
224.15	0.145
224.36	0.156
224.58	0.152
224.79	0.154
225.01	0.151
225.22	0.154
225.44	0.151
225.65	0.160
225.86	0.164
226.08	0.169
226.29	0.174
226.51	0.180
226.72	0.178
226.93	0.194
227.15	0.197
227.36	0.204
227.58	0.208
227.79	0.219
228.00	0.221
228.22	0.214
228.43	0.217
228.65	0.224
228.86	0.220
229.07	0.222
229.29	0.222
229.50	0.217
229.72	0.219
229.93	0.219
230.14	0.219
230.36	0.220
230.57	0.224
230.78	0.222
231.00	0.219
231.21	0.220
231.43	0.220
231.64	0.219
231.85	0.219
232.07	0.218
232.28	0.216
232.50	0.208
232.71	0.200
232.92	0.195
233.14	0.190
233.35	0.187
233.56	0.183
233.78	0.174
233.99	0.166
234.21	0.159
234.42	0.151
234.63	0.142
234.85	0.132
235.06	0.124
235.27	0.116
235.49	0.110
235.70	0.099
235.91	0.090
236.13	0.083
236.34	0.074
236.56	0.064
236.77	0.056
236.98	0.051
237.20	0.046
237.41	0.041
237.62	0.035
237.84	0.028
238.05	0.023
238.26	0.017
238.48	0.011
238.69	0.008
238.91	0.005
239.12	0.001
239.33	-0.002
239.55	-0.003
239.76	-0.005
239.97	-0.007
240.19	-0.009
240.40	-0.011
240.61	-0.012
240.83	-0.013
241.04	-0.014
241.25	-0.016
241.47	-0.015
241.68	-0.016
241.89	-0.018
242.11	-0.019
242.32	-0.020
242.53	-0.021
242.75	-0.020
242.96	-0.021
243.17	-0.021
243.39	-0.022
243.60	-0.022
243.81	-0.023
244.03	-0.023
244.24	-0.022
244.45	-0.022
244.67	-0.022
244.88	-0.021
245.09	-0.021
245.31	-0.020
245.52	-0.020
245.73	-0.020
245.95	-0.020
246.16	-0.019
246.37	-0.019
246.59	-0.019
246.80	-0.019
247.01	-0.018
247.23	-0.018
247.44	-0.019
247.65	-0.018
247.87	-0.017
248.08	-0.017
248.29	-0.017
248.51	-0.016
248.72	-0.015
248.93	-0.015
249.15	-0.014
249.36	-0.014
249.57	-0.014
249.78	-0.013
250.00	-0.013
250.21	-0.012
250.42	-0.011
250.64	-0.010
250.85	-0.009
251.06	-0.009
251.28	-0.008
251.49	-0.007
251.70	-0.006
251.92	-0.004
252.13	-0.003
252.34	-0.002
252.55	-0.001
252.77	-0.001
252.98	0.000
253.19	0.001
253.41	0.003
253.62	0.003
253.83	0.005
254.05	0.005
254.26	0.006
254.47	0.007
254.68	0.007
254.90	0.008
255.11	0.009
255.32	0.010
255.54	0.011
255.75	0.011
255.96	0.012
256.17	0.012
256.39	0.013
256.60	0.014
256.81	0.015
257.03	0.015
257.24	0.016
257.45	0.016
257.66	0.017
257.88	0.018
258.09	0.018
258.30	0.019
258.51	0.019
258.73	0.019
258.94	0.020
259.15	0.021
259.37	0.021
259.58	0.022
259.79	0.022
260.00	0.023
260.22	0.024
260.43	0.025
260.64	0.025
260.85	0.025
261.07	0.025
261.28	0.026
261.49	0.026
261.71	0.026
261.92	0.026
262.13	0.026
262.34	0.025
262.56	0.025
262.77	0.025
262.98	0.024
263.19	0.024
263.41	0.024
263.62	0.023
263.83	0.022
264.04	0.022
264.26	0.021
264.47	0.021
264.68	0.021
264.89	0.020
265.11	0.020
265.32	0.020
265.53	0.019
265.74	0.018
265.96	0.018
266.17	0.018
266.38	0.017
266.59	0.016
266.81	0.016
267.02	0.015
267.23	0.014
267.44	0.013
267.65	0.012
267.87	0.011
268.08	0.010
268.29	0.010
268.50	0.009
268.72	0.009
268.93	0.008
269.14	0.007
269.35	0.006
269.57	0.006
269.78	0.005
269.99	0.004
270.20	0.004
270.41	0.003
270.63	0.003
270.84	0.001
271.05	0.000
271.26	-0.000
271.48	-0.001
271.69	-0.002
271.90	-0.002
272.11	-0.003
272.32	-0.004
272.54	-0.005
272.75	-0.005
272.96	-0.006
273.17	-0.006
273.39	-0.007
273.60	-0.008
273.81	-0.008
274.02	-0.009
274.23	-0.009
274.45	-0.010
274.66	-0.010
274.87	-0.010
275.08	-0.010
275.29	-0.011
275.51	-0.011
275.72	-0.011
275.93	-0.011
276.14	-0.011
276.35	-0.011
276.57	-0.011
276.78	-0.011
276.99	-0.010
277.20	-0.010
277.41	-0.010
277.63	-0.009
277.84	-0.009
278.05	-0.008
278.26	-0.008
278.47	-0.007
278.69	-0.006
278.90	-0.005
279.11	-0.004
279.32	-0.004
279.53	-0.003
279.74	-0.002
279.96	-0.001
280.17	0.000
280.38	0.001
280.59	0.002
280.80	0.003
281.02	0.004
281.23	0.005
281.44	0.006
281.65	0.007
281.86	0.008
282.07	0.008
282.29	0.009
282.50	0.011
282.71	0.012
282.92	0.013
283.13	0.014
283.35	0.016
283.56	0.017
283.77	0.018
283.98	0.020
284.19	0.021
284.40	0.023
284.62	0.025
284.83	0.027
285.04	0.029
285.25	0.031
285.46	0.034
285.67	0.036
285.88	0.039
286.10	0.041
286.31	0.044
286.52	0.047
286.73	0.049
286.94	0.052
287.15	0.055
287.37	0.057
287.58	0.060
287.79	0.063
288.00	0.065
288.21	0.068
288.42	0.070
288.63	0.073
288.85	0.075
289.06	0.078
289.27	0.080
289.48	0.082
289.69	0.084
289.90	0.087
290.11	0.089
290.33	0.091
290.54	0.093
290.75	0.094
290.96	0.096
291.17	0.098
291.38	0.099
291.59	0.101
291.81	0.102
292.02	0.103
292.23	0.105
292.44	0.106
292.65	0.107
292.86	0.108
293.07	0.109
293.28	0.110
293.50	0.111
293.71	0.112
293.92	0.112
294.13	0.113
294.34	0.114
294.55	0.115
294.76	0.115
294.97	0.116
295.19	0.116
295.40	0.116
295.61	0.117
295.82	0.117
296.03	0.117
296.24	0.118
296.45	0.118
296.66	0.118
296.87	0.118
297.09	0.118
297.30	0.118
297.51	0.119
297.72	0.119
297.93	0.119
298.14	0.120
298.35	0.120
298.56	0.120
298.77	0.120
298.99	0.120
299.20	0.120
299.41	0.120
299.62	0.120
299.83	0.120
300.04	0.120
300.25	0.120
300.46	0.120
300.67	0.120
300.88	0.120
301.10	0.120
301.31	0.120
301.52	0.120
301.73	0.120
301.94	0.120
302.15	0.120
302.36	0.120
302.57	0.120
302.78	0.120
302.99	0.120
303.20	0.120
303.41	0.120
303.63	0.119
303.84	0.119
304.05	0.119
304.26	0.119
304.47	0.119
304.68	0.119
304.89	0.119
305.10	0.119
305.31	0.119
305.52	0.119
305.73	0.119
305.94	0.119
306.15	0.119
306.37	0.119
306.58	0.119
306.79	0.119
307.00	0.119
307.21	0.118
307.42	0.118
307.63	0.118
307.84	0.118
308.05	0.118
308.26	0.118
308.47	0.118
308.68	0.118
308.89	0.117
309.10	0.117
309.31	0.117
309.52	0.117
309.73	0.117
309.95	0.117
310.16	0.117
310.37	0.117
310.58	0.117
310.79	0.117
311.00	0.117
311.21	0.117
311.42	0.117
311.63	0.117
311.84	0.116
312.05	0.116
312.26	0.116
312.47	0.116
312.68	0.116
312.89	0.116
313.10	0.116
313.31	0.116
313.52	0.116
313.73	0.116
313.94	0.116
314.15	0.116
314.36	0.116
314.57	0.116
314.78	0.116
314.99	0.116
315.21	0.116
315.42	0.116
315.63	0.116
315.84	0.115
316.05	0.116
316.26	0.115
316.47	0.115
316.68	0.115
316.89	0.115
317.10	0.115
317.31	0.115
317.52	0.115
317.73	0.115
317.94	0.115
318.15	0.115
318.36	0.115
318.57	0.115
318.78	0.115
318.99	0.115
319.20	0.115
319.41	0.115
319.62	0.115
319.83	0.115
320.04	0.115
320.25	0.115
320.46	0.115
320.67	0.115
320.88	0.115
321.09	0.115
321.30	0.115
321.51	0.115
321.72	0.115
321.93	0.115
322.14	0.115
322.35	0.115
322.56	0.115
322.77	0.115
322.98	0.115
323.19	0.115
323.40	0.115
323.61	0.115
323.82	0.115
324.03	0.115
324.24	0.115
324.45	0.115
324.66	0.115
324.87	0.115
325.08	0.115
325.29	0.115
325.50	0.115
325.71	0.115
325.92	0.115
326.13	0.115
326.34	0.115
326.55	0.115
326.76	0.116
326.97	0.116
327.18	0.116
327.39	0.116
327.60	0.116
327.80	0.116
328.01	0.116
328.22	0.116
328.43	0.116
328.64	0.116
328.85	0.116
329.06	0.116
329.27	0.116
329.48	0.116
329.69	0.116
329.90	0.116
330.11	0.117
330.32	0.117
330.53	0.116
330.74	0.116
330.95	0.116
331.16	0.116
331.37	0.116
331.58	0.116
331.79	0.116
332.00	0.116
332.21	0.116
332.42	0.116
332.63	0.116
332.83	0.116
333.04	0.116
333.25	0.116
333.46	0.116
333.67	0.116
333.88	0.116
334.09	0.116
334.30	0.116
334.51	0.116
334.72	0.116
334.93	0.115
335.14	0.115
335.35	0.115
335.56	0.116
335.77	0.115
335.98	0.115
336.18	0.115
336.39	0.116
336.60	0.116
336.81	0.116
337.02	0.116
337.23	0.116
337.44	0.116
337.65	0.116
337.86	0.116
338.07	0.116
338.28	0.116
338.49	0.116
338.70	0.116
338.91	0.115
339.11	0.115
339.32	0.115
339.53	0.115
339.74	0.116
339.95	0.115
340.16	0.116
340.37	0.116
340.58	0.116
340.79	0.116
341.00	0.116
341.21	0.116
341.41	0.116
341.62	0.116
341.83	0.116
342.04	0.116
342.25	0.116
342.46	0.116
342.67	0.116
342.88	0.117
343.09	0.117
343.30	0.117
343.50	0.117
343.71	0.117
343.92	0.117
344.13	0.117
344.34	0.118
344.55	0.118
344.76	0.118
344.97	0.118
345.18	0.118
345.38	0.118
345.59	0.118
345.80	0.118
346.01	0.118
346.22	0.118
346.43	0.118
346.64	0.118
346.85	0.118
347.06	0.119
347.26	0.119
347.47	0.119
347.68	0.119
347.89	0.119
348.10	0.119
348.31	0.119
348.52	0.119
348.73	0.120
348.93	0.120
349.14	0.120
349.35	0.120
349.56	0.120
349.77	0.120
349.98	0.120
350.19	0.120
350.39	0.120
350.60	0.120
350.81	0.120
351.02	0.120
351.23	0.121
351.44	0.121
351.65	0.121
351.86	0.121
352.06	0.121
352.27	0.122
352.48	0.122
352.69	0.122
352.90	0.122
353.11	0.122
353.31	0.122
353.52	0.122
353.73	0.122
353.94	0.122
354.15	0.122
354.36	0.122
354.57	0.123
354.77	0.123
354.98	0.123
355.19	0.123
355.40	0.123
355.61	0.123
355.82	0.123
356.02	0.124
356.23	0.124
356.44	0.124
356.65	0.124
356.86	0.124
357.07	0.124
357.27	0.124
357.48	0.124
357.69	0.124
357.90	0.124
358.11	0.124
358.32	0.124
358.52	0.124
358.73	0.125
358.94	0.125
359.15	0.125
359.36	0.125
359.56	0.125
359.77	0.125
359.98	0.125
360.19	0.125
360.40	0.125
360.61	0.125
360.81	0.125
361.02	0.126
361.23	0.126
361.44	0.126
361.65	0.126
361.85	0.126
362.06	0.126
362.27	0.126
362.48	0.126
362.69	0.126
362.89	0.126
363.10	0.126
363.31	0.127
363.52	0.127
363.73	0.127
363.93	0.127
364.14	0.127
364.35	0.127
364.56	0.127
364.77	0.127
364.97	0.128
365.18	0.128
365.39	0.128
365.60	0.128
365.81	0.128
366.01	0.128
366.22	0.128
366.43	0.128
366.64	0.128
366.84	0.128
367.05	0.128
367.26	0.128
367.47	0.128
367.68	0.128
367.88	0.128
368.09	0.129
368.30	0.129
368.51	0.129
368.71	0.129
368.92	0.129
369.13	0.129
369.34	0.129
369.55	0.129
369.75	0.129
369.96	0.129
370.17	0.129
370.38	0.130
370.58	0.129
370.79	0.129
371.00	0.130
371.21	0.130
371.41	0.130
371.62	0.130
371.83	0.130
372.04	0.130
372.24	0.130
372.45	0.130
372.66	0.130
372.87	0.130
373.07	0.130
373.28	0.130
373.49	0.130
373.70	0.130
373.90	0.130
374.11	0.130
374.32	0.130
374.53	0.130
374.73	0.130
374.94	0.130
375.15	0.130
375.36	0.130
375.56	0.130
375.77	0.130
375.98	0.130
376.19	0.130
376.39	0.130
376.60	0.130
376.81	0.130
377.02	0.130
377.22	0.130
377.43	0.131
377.64	0.131
377.84	0.131
378.05	0.131
378.26	0.131
378.47	0.131
378.67	0.131
378.88	0.131
379.09	0.131
379.30	0.131
379.50	0.131
379.71	0.131
379.92	0.131
380.12	0.131
380.33	0.131
380.54	0.131
380.75	0.131
380.95	0.131
381.16	0.131
381.37	0.131
381.57	0.131
381.78	0.131
381.99	0.131
382.20	0.131
382.40	0.131
382.61	0.131
382.82	0.131
383.02	0.131
383.23	0.131
383.44	0.131
383.64	0.131
383.85	0.131
384.06	0.131
384.27	0.131
384.47	0.131
384.68	0.131
384.89	0.131
385.09	0.131
385.30	0.131
385.51	0.131
385.71	0.131
385.92	0.131
386.13	0.131
386.33	0.131
386.54	0.131
386.75	0.132
386.95	0.132
387.16	0.132
387.37	0.131
387.58	0.131
387.78	0.131
387.99	0.131
388.20	0.131
388.40	0.132
388.61	0.132
388.82	0.132
389.02	0.132
389.23	0.132
389.44	0.132
389.64	0.132
389.85	0.132
390.06	0.131
390.26	0.131
390.47	0.131
390.68	0.131
390.88	0.131
391.09	0.131
391.30	0.131
391.50	0.131
391.71	0.131
391.92	0.131
392.12	0.131
392.33	0.131
392.53	0.132
392.74	0.132
392.95	0.132
393.15	0.132
393.36	0.132
393.57	0.132
393.77	0.132
393.98	0.132
394.19	0.132
394.39	0.132
394.60	0.132
394.81	0.132
395.01	0.132
395.22	0.132
395.43	0.131
395.63	0.131
395.84	0.131
396.04	0.131
396.25	0.131
396.46	0.131
396.66	0.131
396.87	0.131
397.08	0.131
397.28	0.131
397.49	0.131
397.69	0.131
397.90	0.131
398.11	0.131
398.31	0.131
398.52	0.131
398.73	0.131
398.93	0.131
399.14	0.131
399.34	0.131
399.55	0.131
399.76	0.131
399.96	0.131
400.17	0.131
400.37	0.131
400.58	0.131
400.79	0.131
400.99	0.131
401.20	0.131
401.41	0.131
401.61	0.131
401.82	0.131
402.02	0.131
402.23	0.131
402.44	0.131
402.64	0.131
402.85	0.131
403.05	0.131
403.26	0.131
403.47	0.131
403.67	0.131
403.88	0.131
404.08	0.131
404.29	0.131
404.50	0.131
404.70	0.131
404.91	0.131
405.11	0.131
405.32	0.131
405.52	0.130
405.73	0.130
405.94	0.130
406.14	0.130
406.35	0.130
406.55	0.130
406.76	0.130
406.97	0.130
407.17	0.130
407.38	0.130
407.58	0.130
407.79	0.130
407.99	0.130
408.20	0.130
408.41	0.130
408.61	0.130
408.82	0.130
409.02	0.130
409.23	0.130
409.43	0.130
409.64	0.130
409.84	0.130
410.05	0.130
410.26	0.130
410.46	0.130
410.67	0.130
410.87	0.130
411.08	0.130
411.28	0.130
411.49	0.130
411.69	0.130
411.90	0.130
412.11	0.130
412.31	0.130
412.52	0.130
412.72	0.130
412.93	0.130
413.13	0.130
413.34	0.130
413.54	0.130
413.75	0.130
413.95	0.130
414.16	0.130
414.37	0.130
414.57	0.130
414.78	0.130
414.98	0.130
415.19	0.130
415.39	0.130
415.60	0.130
415.80	0.130
416.01	0.130
416.21	0.130
416.42	0.130
416.62	0.130
416.83	0.130
417.03	0.130
417.24	0.130
417.44	0.129
417.65	0.129
417.86	0.129
418.06	0.129
418.27	0.129
418.47	0.129
418.68	0.129
418.88	0.129
419.09	0.129
419.29	0.129
419.50	0.129
419.70	0.129
419.91	0.129
420.11	0.129
420.32	0.129
420.52	0.129
420.73	0.129
420.93	0.129
421.14	0.129
421.34	0.129
421.55	0.129
421.75	0.129
421.96	0.129
422.16	0.129
422.37	0.129
422.57	0.129
422.78	0.129
422.98	0.129
423.19	0.130
423.39	0.130
423.60	0.130
423.80	0.130
424.01	0.130
424.21	0.130
424.42	0.130
424.62	0.130
424.83	0.130
425.03	0.130
425.23	0.130
425.44	0.130
425.64	0.130
425.85	0.130
426.05	0.130
426.26	0.130
426.46	0.130
426.67	0.129
426.87	0.129
427.08	0.129
427.28	0.129
427.49	0.129
427.69	0.129
427.90	0.129
428.10	0.129
428.31	0.129
428.51	0.129
428.71	0.129
428.92	0.129
429.12	0.129
429.33	0.129
429.53	0.129
429.74	0.129
429.94	0.129
430.15	0.129
430.35	0.129
430.56	0.129
430.76	0.130
430.96	0.130
431.17	0.130
431.37	0.130
431.58	0.130
431.78	0.130
431.99	0.130
432.19	0.130
432.40	0.130
432.60	0.130
432.80	0.130
433.01	0.130
433.21	0.130
433.42	0.130
433.62	0.130
433.83	0.130
434.03	0.130
434.23	0.130
434.44	0.129
434.64	0.129
434.85	0.129
435.05	0.129
435.26	0.129
435.46	0.129
435.66	0.129
435.87	0.129
436.07	0.129
436.28	0.129
436.48	0.129
436.69	0.129
436.89	0.129
437.09	0.129
437.30	0.129
437.50	0.129
437.71	0.129
437.91	0.129
438.11	0.129
438.32	0.129
438.52	0.129
438.73	0.129
438.93	0.129
439.13	0.129
439.34	0.129
439.54	0.129
439.75	0.129
439.95	0.129
440.15	0.129
440.36	0.129
440.56	0.129
440.77	0.129
440.97	0.129
441.17	0.129
441.38	0.129
441.58	0.129
441.79	0.129
441.99	0.129
442.19	0.129
442.40	0.129
442.60	0.129
442.81	0.129
443.01	0.129
443.21	0.129
443.42	0.129
443.62	0.129
443.82	0.129
444.03	0.129
444.23	0.129
444.44	0.129
444.64	0.129
444.84	0.129
445.05	0.129
445.25	0.129
445.45	0.129
445.66	0.129
445.86	0.129
446.06	0.129
446.27	0.129
446.47	0.129
446.68	0.129
446.88	0.129
447.08	0.129
447.29	0.129
447.49	0.129
447.69	0.129
447.90	0.129
448.10	0.129
448.30	0.129
448.51	0.129
448.71	0.129
448.91	0.129
449.12	0.129
449.32	0.129
449.52	0.129
449.73	0.130
449.93	0.130
450.14	0.129
450.34	0.129
450.54	0.129
450.75	0.129
450.95	0.129
451.15	0.129
451.36	0.129
451.56	0.129
451.76	0.129
451.97	0.129
452.17	0.129
452.37	0.129
452.58	0.129
452.78	0.129
452.98	0.129
453.19	0.129
453.39	0.129
453.59	0.129
453.79	0.129
454.00	0.129
454.20	0.129
454.40	0.128
454.61	0.128
454.81	0.128
455.01	0.128
455.22	0.128
455.42	0.129
455.62	0.128
455.83	0.129
456.03	0.129
456.23	0.129
456.44	0.129
456.64	0.129
456.84	0.129
457.04	0.129
457.25	0.129
457.45	0.129
457.65	0.129
457.86	0.129
458.06	0.129
458.26	0.129
458.47	0.129
458.67	0.128
458.87	0.128
459.07	0.129
459.28	0.129
459.48	0.129
459.68	0.129
459.89	0.129
460.09	0.129
460.29	0.129
460.49	0.129
460.70	0.129
460.90	0.129
461.10	0.129
461.31	0.129
461.51	0.129
461.71	0.129
461.91	0.129
462.12	0.129
462.32	0.129
462.52	0.129
462.72	0.129
462.93	0.129
463.13	0.129
463.33	0.129
463.53	0.128
463.74	0.128
463.94	0.128
464.14	0.128
464.35	0.128
464.55	0.128
464.75	0.128
464.95	0.128
465.16	0.128
465.36	0.128
465.56	0.128
465.76	0.128
465.97	0.128
466.17	0.128
