SpectraSuite Data File
++++++++++++++++++++++++++++++++++++
Date: Mon Jun 15 07:52:47 PDT 2015
User: introlabs
Dark Spectrum Present: Yes
Reference Spectrum Present: Yes
Number of Sampled Component Spectra: 1
Spectrometers: USB4H08886
Integration Time (usec): 44366 (USB4H08886)
Spectra Averaged: 20 (USB4H08886)
Boxcar Smoothing: 5 (USB4H08886)
Correct for Electrical Dark: Yes (USB4H08886)
Strobe/Lamp Enabled: No (USB4H08886)
Correct for Detector Non-linearity: Yes (USB4H08886)
Correct for Stray Light: Yes (USB4H08886)
Number of Pixels in Processed Spectrum: 3648
>>>>>Begin Processed Spectral Data<<<<<
178.14	-0.000
178.36	-0.000
178.57	-0.000
178.79	0.511
179.01	-1.183
179.22	0.086
179.44	-0.214
179.65	-0.000
179.87	-0.000
180.08	0.534
180.30	0.323
180.52	0.062
180.73	-0.006
180.95	-0.024
181.16	0.025
181.38	-0.027
181.59	-0.023
181.81	-0.004
182.03	0.012
182.24	0.023
182.46	0.028
182.67	0.022
182.89	0.020
183.10	0.027
183.32	0.032
183.54	0.018
183.75	0.031
183.97	0.029
184.18	0.015
184.40	0.006
184.61	0.004
184.83	0.010
185.04	0.009
185.26	0.006
185.48	-0.001
185.69	-0.007
185.91	-0.003
186.12	-0.004
186.34	0.007
186.55	0.010
186.77	0.018
186.98	0.009
187.20	-0.006
187.42	-0.004
187.63	0.002
187.85	0.005
188.06	0.010
188.28	0.014
188.49	0.015
188.71	0.006
188.92	0.009
189.14	0.004
189.36	0.015
189.57	0.016
189.79	0.010
190.00	0.007
190.22	0.004
190.43	-0.002
190.65	-0.010
190.86	-0.008
191.08	-0.008
191.29	-0.007
191.51	-0.006
191.72	-0.006
191.94	-0.002
192.16	0.002
192.37	0.004
192.59	0.009
192.80	0.011
193.02	0.022
193.23	0.028
193.45	0.015
193.66	0.009
193.88	0.009
194.09	0.007
194.31	0.004
194.52	0.001
194.74	-0.006
194.95	-0.007
195.17	-0.008
195.38	-0.016
195.60	-0.025
195.81	-0.008
196.03	-0.006
196.25	-0.002
196.46	-0.010
196.68	-0.011
196.89	-0.010
197.11	-0.004
197.32	-0.015
197.54	-0.026
197.75	-0.012
197.97	-0.014
198.18	-0.023
198.40	-0.014
198.61	-0.024
198.83	-0.025
199.04	-0.018
199.26	-0.021
199.47	-0.029
199.69	-0.023
199.90	-0.001
200.12	-0.012
200.33	-0.014
200.55	-0.010
200.76	-0.017
200.98	-0.015
201.19	-0.014
201.41	-0.020
201.62	-0.014
201.84	0.001
202.05	0.007
202.27	-0.001
202.48	-0.007
202.70	-0.002
202.91	-0.004
203.13	-0.006
203.34	-0.006
203.56	0.001
203.77	0.006
203.99	-0.002
204.20	-0.014
204.42	-0.027
204.63	-0.025
204.85	-0.026
205.06	-0.024
205.28	-0.014
205.49	-0.011
205.71	-0.003
205.92	-0.001
206.14	-0.011
206.35	-0.002
206.56	0.015
206.78	0.018
206.99	0.025
207.21	0.038
207.42	0.037
207.64	0.035
207.85	0.041
208.07	0.042
208.28	0.041
208.50	0.053
208.71	0.052
208.93	0.045
209.14	0.051
209.36	0.043
209.57	0.039
209.79	0.035
210.00	0.031
210.22	0.032
210.43	0.028
210.64	0.019
210.86	0.008
211.07	0.004
211.29	0.000
211.50	-0.002
211.72	-0.007
211.93	-0.009
212.15	-0.009
212.36	-0.017
212.58	-0.021
212.79	-0.021
213.01	-0.019
213.22	-0.014
213.43	-0.006
213.65	-0.005
213.86	-0.006
214.08	0.004
214.29	0.005
214.51	0.006
214.72	0.012
214.94	0.012
215.15	0.014
215.36	0.017
215.58	0.014
215.79	0.009
216.01	0.015
216.22	0.014
216.44	0.001
216.65	-0.004
216.87	0.002
217.08	-0.002
217.29	0.001
217.51	0.004
217.72	0.004
217.94	0.012
218.15	0.012
218.37	0.003
218.58	0.004
218.80	0.009
219.01	0.010
219.22	0.007
219.44	0.011
219.65	0.010
219.87	0.006
220.08	0.004
220.30	-0.002
220.51	-0.004
220.72	-0.006
220.94	-0.008
221.15	-0.004
221.37	-0.008
221.58	-0.007
221.79	-0.005
222.01	-0.012
222.22	-0.017
222.44	-0.019
222.65	-0.022
222.87	-0.024
223.08	-0.021
223.29	-0.019
223.51	-0.024
223.72	-0.021
223.94	-0.027
224.15	-0.029
224.36	-0.023
224.58	-0.023
224.79	-0.016
225.01	-0.013
225.22	-0.010
225.44	-0.015
225.65	-0.014
225.86	-0.010
226.08	-0.008
226.29	-0.007
226.51	-0.005
226.72	-0.003
226.93	0.002
227.15	-0.004
227.36	-0.004
227.58	-0.002
227.79	0.010
228.00	0.007
228.22	0.000
228.43	-0.001
228.65	0.001
228.86	-0.002
229.07	-0.004
229.29	-0.007
229.50	-0.006
229.72	-0.005
229.93	-0.007
230.14	-0.013
230.36	-0.011
230.57	-0.009
230.78	-0.011
231.00	-0.016
231.21	-0.017
231.43	-0.018
231.64	-0.016
231.85	-0.017
232.07	-0.020
232.28	-0.021
232.50	-0.023
232.71	-0.025
232.92	-0.024
233.14	-0.026
233.35	-0.023
233.56	-0.022
233.78	-0.023
233.99	-0.024
234.21	-0.023
234.42	-0.022
234.63	-0.023
234.85	-0.021
235.06	-0.021
235.27	-0.021
235.49	-0.018
235.70	-0.019
235.91	-0.020
236.13	-0.020
236.34	-0.022
236.56	-0.021
236.77	-0.022
236.98	-0.021
237.20	-0.021
237.41	-0.020
237.62	-0.019
237.84	-0.020
238.05	-0.019
238.26	-0.019
238.48	-0.020
238.69	-0.017
238.91	-0.018
239.12	-0.018
239.33	-0.018
239.55	-0.018
239.76	-0.018
239.97	-0.018
240.19	-0.017
240.40	-0.017
240.61	-0.017
240.83	-0.017
241.04	-0.017
241.25	-0.016
241.47	-0.016
241.68	-0.014
241.89	-0.014
242.11	-0.014
242.32	-0.014
242.53	-0.014
242.75	-0.013
242.96	-0.013
243.17	-0.012
243.39	-0.012
243.60	-0.012
243.81	-0.012
244.03	-0.012
244.24	-0.012
244.45	-0.011
244.67	-0.010
244.88	-0.009
245.09	-0.009
245.31	-0.009
245.52	-0.009
245.73	-0.009
245.95	-0.008
246.16	-0.008
246.37	-0.008
246.59	-0.008
246.80	-0.008
247.01	-0.008
247.23	-0.008
247.44	-0.008
247.65	-0.008
247.87	-0.008
248.08	-0.008
248.29	-0.007
248.51	-0.007
248.72	-0.007
248.93	-0.007
249.15	-0.007
249.36	-0.007
249.57	-0.007
249.78	-0.006
250.00	-0.006
250.21	-0.006
250.42	-0.006
250.64	-0.006
250.85	-0.005
251.06	-0.005
251.28	-0.005
251.49	-0.005
251.70	-0.005
251.92	-0.005
252.13	-0.005
252.34	-0.005
252.55	-0.005
252.77	-0.005
252.98	-0.005
253.19	-0.005
253.41	-0.004
253.62	-0.004
253.83	-0.004
254.05	-0.004
254.26	-0.004
254.47	-0.005
254.68	-0.004
254.90	-0.004
255.11	-0.004
255.32	-0.003
255.54	-0.004
255.75	-0.003
255.96	-0.003
256.17	-0.003
256.39	-0.003
256.60	-0.003
256.81	-0.003
257.03	-0.002
257.24	-0.002
257.45	-0.003
257.66	-0.003
257.88	-0.003
258.09	-0.003
258.30	-0.003
258.51	-0.003
258.73	-0.003
258.94	-0.003
259.15	-0.003
259.37	-0.004
259.58	-0.004
259.79	-0.004
260.00	-0.004
260.22	-0.004
260.43	-0.004
260.64	-0.004
260.85	-0.004
261.07	-0.004
261.28	-0.004
261.49	-0.004
261.71	-0.004
261.92	-0.004
262.13	-0.004
262.34	-0.004
262.56	-0.004
262.77	-0.004
262.98	-0.004
263.19	-0.004
263.41	-0.005
263.62	-0.004
263.83	-0.004
264.04	-0.004
264.26	-0.004
264.47	-0.004
264.68	-0.004
264.89	-0.004
265.11	-0.005
265.32	-0.004
265.53	-0.004
265.74	-0.004
265.96	-0.005
266.17	-0.005
266.38	-0.005
266.59	-0.005
266.81	-0.005
267.02	-0.005
267.23	-0.006
267.44	-0.006
267.65	-0.006
267.87	-0.007
268.08	-0.007
268.29	-0.006
268.50	-0.006
268.72	-0.006
268.93	-0.006
269.14	-0.006
269.35	-0.006
269.57	-0.006
269.78	-0.006
269.99	-0.006
270.20	-0.006
270.41	-0.006
270.63	-0.006
270.84	-0.007
271.05	-0.007
271.26	-0.007
271.48	-0.007
271.69	-0.007
271.90	-0.008
272.11	-0.008
272.32	-0.008
272.54	-0.008
272.75	-0.008
272.96	-0.008
273.17	-0.008
273.39	-0.008
273.60	-0.008
273.81	-0.008
274.02	-0.008
274.23	-0.008
274.45	-0.008
274.66	-0.008
274.87	-0.008
275.08	-0.008
275.29	-0.008
275.51	-0.008
275.72	-0.008
275.93	-0.008
276.14	-0.008
276.35	-0.008
276.57	-0.008
276.78	-0.008
276.99	-0.008
277.20	-0.008
277.41	-0.008
277.63	-0.008
277.84	-0.008
278.05	-0.008
278.26	-0.008
278.47	-0.008
278.69	-0.008
278.90	-0.008
279.11	-0.008
279.32	-0.007
279.53	-0.007
279.74	-0.007
279.96	-0.007
280.17	-0.007
280.38	-0.006
280.59	-0.006
280.80	-0.006
281.02	-0.006
281.23	-0.006
281.44	-0.006
281.65	-0.006
281.86	-0.006
282.07	-0.006
282.29	-0.006
282.50	-0.006
282.71	-0.006
282.92	-0.006
283.13	-0.006
283.35	-0.006
283.56	-0.006
283.77	-0.006
283.98	-0.006
284.19	-0.005
284.40	-0.005
284.62	-0.005
284.83	-0.005
285.04	-0.005
285.25	-0.005
285.46	-0.004
285.67	-0.004
285.88	-0.004
286.10	-0.004
286.31	-0.003
286.52	-0.003
286.73	-0.003
286.94	-0.002
287.15	-0.002
287.37	-0.002
287.58	-0.001
287.79	-0.001
288.00	-0.001
288.21	-0.000
288.42	0.000
288.63	0.000
288.85	0.000
289.06	0.000
289.27	0.000
289.48	0.000
289.69	0.000
289.90	0.001
290.11	0.001
290.33	0.001
290.54	0.001
290.75	0.001
290.96	0.002
291.17	0.002
291.38	0.002
291.59	0.002
291.81	0.002
292.02	0.003
292.23	0.003
292.44	0.003
292.65	0.003
292.86	0.003
293.07	0.003
293.28	0.003
293.50	0.003
293.71	0.003
293.92	0.003
294.13	0.003
294.34	0.003
294.55	0.003
294.76	0.003
294.97	0.004
295.19	0.004
295.40	0.004
295.61	0.004
295.82	0.004
296.03	0.004
296.24	0.004
296.45	0.004
296.66	0.004
296.87	0.004
297.09	0.004
297.30	0.004
297.51	0.004
297.72	0.004
297.93	0.004
298.14	0.004
298.35	0.004
298.56	0.004
298.77	0.004
298.99	0.004
299.20	0.004
299.41	0.004
299.62	0.004
299.83	0.004
300.04	0.004
300.25	0.004
300.46	0.004
300.67	0.004
300.88	0.004
301.10	0.004
301.31	0.004
301.52	0.004
301.73	0.004
301.94	0.004
302.15	0.004
302.36	0.004
302.57	0.004
302.78	0.004
302.99	0.004
303.20	0.004
303.41	0.004
303.63	0.004
303.84	0.004
304.05	0.004
304.26	0.004
304.47	0.004
304.68	0.004
304.89	0.004
305.10	0.004
305.31	0.005
305.52	0.005
305.73	0.005
305.94	0.005
306.15	0.005
306.37	0.005
306.58	0.005
306.79	0.005
307.00	0.005
307.21	0.005
307.42	0.005
307.63	0.005
307.84	0.005
308.05	0.005
308.26	0.005
308.47	0.005
308.68	0.005
308.89	0.005
309.10	0.004
309.31	0.004
309.52	0.004
309.73	0.004
309.95	0.004
310.16	0.004
310.37	0.004
310.58	0.004
310.79	0.004
311.00	0.004
311.21	0.004
311.42	0.004
311.63	0.004
311.84	0.004
312.05	0.004
312.26	0.005
312.47	0.005
312.68	0.005
312.89	0.005
313.10	0.005
313.31	0.005
313.52	0.005
313.73	0.005
313.94	0.005
314.15	0.005
314.36	0.005
314.57	0.005
314.78	0.005
314.99	0.005
315.21	0.005
315.42	0.005
315.63	0.005
315.84	0.005
316.05	0.005
316.26	0.005
316.47	0.005
316.68	0.005
316.89	0.005
317.10	0.005
317.31	0.005
317.52	0.005
317.73	0.005
317.94	0.005
318.15	0.005
318.36	0.005
318.57	0.005
318.78	0.005
318.99	0.005
319.20	0.005
319.41	0.005
319.62	0.005
319.83	0.005
320.04	0.005
320.25	0.005
320.46	0.005
320.67	0.005
320.88	0.005
321.09	0.005
321.30	0.005
321.51	0.005
321.72	0.005
321.93	0.005
322.14	0.005
322.35	0.005
322.56	0.005
322.77	0.005
322.98	0.005
323.19	0.005
323.40	0.005
323.61	0.005
323.82	0.005
324.03	0.005
324.24	0.005
324.45	0.005
324.66	0.005
324.87	0.005
325.08	0.005
325.29	0.005
325.50	0.005
325.71	0.005
325.92	0.005
326.13	0.005
326.34	0.005
326.55	0.005
326.76	0.005
326.97	0.005
327.18	0.005
327.39	0.005
327.60	0.005
327.80	0.005
328.01	0.005
328.22	0.005
328.43	0.005
328.64	0.006
328.85	0.005
329.06	0.005
329.27	0.005
329.48	0.005
329.69	0.005
329.90	0.005
330.11	0.005
330.32	0.005
330.53	0.005
330.74	0.005
330.95	0.005
331.16	0.005
331.37	0.005
331.58	0.005
331.79	0.005
332.00	0.005
332.21	0.005
332.42	0.005
332.63	0.005
332.83	0.005
333.04	0.005
333.25	0.005
333.46	0.005
333.67	0.005
333.88	0.005
334.09	0.005
334.30	0.005
334.51	0.005
334.72	0.005
334.93	0.005
335.14	0.005
335.35	0.005
335.56	0.005
335.77	0.005
335.98	0.005
336.18	0.005
336.39	0.005
336.60	0.005
336.81	0.005
337.02	0.005
337.23	0.005
337.44	0.005
337.65	0.005
337.86	0.005
338.07	0.005
338.28	0.005
338.49	0.005
338.70	0.005
338.91	0.005
339.11	0.005
339.32	0.005
339.53	0.005
339.74	0.005
339.95	0.004
340.16	0.004
340.37	0.004
340.58	0.004
340.79	0.004
341.00	0.004
341.21	0.004
341.41	0.004
341.62	0.004
341.83	0.004
342.04	0.004
342.25	0.004
342.46	0.004
342.67	0.004
342.88	0.004
343.09	0.004
343.30	0.004
343.50	0.004
343.71	0.004
343.92	0.004
344.13	0.004
344.34	0.004
344.55	0.004
344.76	0.004
344.97	0.004
345.18	0.004
345.38	0.004
345.59	0.004
345.80	0.004
346.01	0.004
346.22	0.004
346.43	0.004
346.64	0.004
346.85	0.004
347.06	0.004
347.26	0.004
347.47	0.004
347.68	0.004
347.89	0.004
348.10	0.004
348.31	0.004
348.52	0.004
348.73	0.003
348.93	0.003
349.14	0.003
349.35	0.003
349.56	0.003
349.77	0.003
349.98	0.003
350.19	0.003
350.39	0.003
350.60	0.003
350.81	0.003
351.02	0.003
351.23	0.003
351.44	0.003
351.65	0.003
351.86	0.003
352.06	0.003
352.27	0.003
352.48	0.003
352.69	0.003
352.90	0.003
353.11	0.003
353.31	0.003
353.52	0.003
353.73	0.003
353.94	0.003
354.15	0.003
354.36	0.003
354.57	0.003
354.77	0.003
354.98	0.003
355.19	0.003
355.40	0.003
355.61	0.003
355.82	0.003
356.02	0.003
356.23	0.003
356.44	0.003
356.65	0.003
356.86	0.003
357.07	0.003
357.27	0.003
357.48	0.003
357.69	0.003
357.90	0.003
358.11	0.003
358.32	0.003
358.52	0.003
358.73	0.003
358.94	0.003
359.15	0.003
359.36	0.003
359.56	0.003
359.77	0.003
359.98	0.003
360.19	0.003
360.40	0.003
360.61	0.003
360.81	0.003
361.02	0.003
361.23	0.003
361.44	0.003
361.65	0.003
361.85	0.003
362.06	0.003
362.27	0.003
362.48	0.003
362.69	0.003
362.89	0.003
363.10	0.003
363.31	0.003
363.52	0.003
363.73	0.003
363.93	0.003
364.14	0.003
364.35	0.003
364.56	0.003
364.77	0.003
364.97	0.003
365.18	0.003
365.39	0.003
365.60	0.002
365.81	0.002
366.01	0.002
366.22	0.002
366.43	0.002
366.64	0.002
366.84	0.002
367.05	0.002
367.26	0.002
367.47	0.002
367.68	0.003
367.88	0.003
368.09	0.003
368.30	0.003
368.51	0.003
368.71	0.003
368.92	0.003
369.13	0.003
369.34	0.003
369.55	0.003
369.75	0.003
369.96	0.003
370.17	0.003
370.38	0.003
370.58	0.002
370.79	0.002
371.00	0.002
371.21	0.002
371.41	0.002
371.62	0.002
371.83	0.002
372.04	0.002
372.24	0.002
372.45	0.002
372.66	0.003
372.87	0.003
373.07	0.003
373.28	0.003
373.49	0.003
373.70	0.003
373.90	0.002
374.11	0.002
374.32	0.002
374.53	0.002
374.73	0.002
374.94	0.002
375.15	0.002
375.36	0.002
375.56	0.002
375.77	0.002
375.98	0.002
376.19	0.002
376.39	0.002
376.60	0.002
376.81	0.002
377.02	0.002
377.22	0.002
377.43	0.002
377.64	0.002
377.84	0.002
378.05	0.002
378.26	0.002
378.47	0.002
378.67	0.002
378.88	0.002
379.09	0.002
379.30	0.002
379.50	0.002
379.71	0.002
379.92	0.002
380.12	0.002
380.33	0.002
380.54	0.002
380.75	0.002
380.95	0.002
381.16	0.002
381.37	0.002
381.57	0.002
381.78	0.002
381.99	0.002
382.20	0.002
382.40	0.002
382.61	0.002
382.82	0.002
383.02	0.002
383.23	0.002
383.44	0.002
383.64	0.002
383.85	0.002
384.06	0.002
384.27	0.002
384.47	0.002
384.68	0.002
384.89	0.002
385.09	0.002
385.30	0.002
385.51	0.002
385.71	0.002
385.92	0.002
386.13	0.002
386.33	0.002
386.54	0.002
386.75	0.002
386.95	0.002
387.16	0.002
387.37	0.002
387.58	0.002
387.78	0.002
387.99	0.002
388.20	0.002
388.40	0.002
388.61	0.002
388.82	0.002
389.02	0.002
389.23	0.002
389.44	0.002
389.64	0.002
389.85	0.002
390.06	0.002
390.26	0.002
390.47	0.002
390.68	0.002
390.88	0.002
391.09	0.002
391.30	0.002
391.50	0.002
391.71	0.002
391.92	0.002
392.12	0.002
392.33	0.002
392.53	0.002
392.74	0.002
392.95	0.002
393.15	0.002
393.36	0.002
393.57	0.002
393.77	0.002
393.98	0.002
394.19	0.002
394.39	0.002
394.60	0.002
394.81	0.002
395.01	0.002
395.22	0.002
395.43	0.002
395.63	0.002
395.84	0.002
396.04	0.002
396.25	0.002
396.46	0.002
396.66	0.002
396.87	0.002
397.08	0.002
397.28	0.002
397.49	0.002
397.69	0.002
397.90	0.002
398.11	0.002
398.31	0.002
398.52	0.002
398.73	0.002
398.93	0.002
399.14	0.002
399.34	0.002
399.55	0.002
399.76	0.002
399.96	0.002
400.17	0.002
400.37	0.002
400.58	0.002
400.79	0.002
400.99	0.002
401.20	0.002
401.41	0.002
401.61	0.002
401.82	0.002
402.02	0.002
402.23	0.001
402.44	0.001
402.64	0.002
402.85	0.002
403.05	0.002
403.26	0.002
403.47	0.002
403.67	0.002
403.88	0.002
404.08	0.002
404.29	0.002
404.50	0.002
404.70	0.002
404.91	0.002
405.11	0.002
405.32	0.002
405.52	0.001
405.73	0.001
405.94	0.001
406.14	0.001
406.35	0.001
406.55	0.001
406.76	0.001
406.97	0.001
407.17	0.001
407.38	0.001
407.58	0.001
407.79	0.001
407.99	0.001
408.20	0.001
408.41	0.001
408.61	0.001
408.82	0.001
409.02	0.001
409.23	0.001
409.43	0.001
409.64	0.001
409.84	0.001
410.05	0.002
410.26	0.001
410.46	0.002
410.67	0.001
410.87	0.001
411.08	0.002
411.28	0.002
411.49	0.002
411.69	0.001
411.90	0.002
412.11	0.002
412.31	0.001
412.52	0.001
412.72	0.001
412.93	0.001
413.13	0.001
413.34	0.001
413.54	0.001
413.75	0.001
413.95	0.001
414.16	0.001
414.37	0.001
414.57	0.001
414.78	0.001
414.98	0.001
415.19	0.001
415.39	0.001
415.60	0.001
415.80	0.001
416.01	0.001
416.21	0.001
416.42	0.001
416.62	0.001
416.83	0.001
417.03	0.001
417.24	0.001
417.44	0.001
417.65	0.001
417.86	0.001
418.06	0.001
418.27	0.001
418.47	0.001
418.68	0.001
418.88	0.001
419.09	0.001
419.29	0.001
419.50	0.001
419.70	0.001
419.91	0.001
420.11	0.001
420.32	0.001
420.52	0.001
420.73	0.001
420.93	0.001
421.14	0.001
421.34	0.001
421.55	0.001
421.75	0.001
421.96	0.001
422.16	0.001
422.37	0.001
422.57	0.001
422.78	0.001
422.98	0.001
423.19	0.001
423.39	0.001
423.60	0.001
423.80	0.001
424.01	0.001
424.21	0.001
424.42	0.001
424.62	0.001
424.83	0.001
425.03	0.001
425.23	0.001
425.44	0.001
425.64	0.001
425.85	0.001
426.05	0.001
426.26	0.001
426.46	0.001
426.67	0.001
426.87	0.001
427.08	0.001
427.28	0.001
427.49	0.001
427.69	0.001
427.90	0.001
428.10	0.001
428.31	0.001
428.51	0.001
428.71	0.001
428.92	0.001
429.12	0.001
429.33	0.001
429.53	0.001
429.74	0.001
429.94	0.001
430.15	0.001
430.35	0.001
430.56	0.001
430.76	0.001
430.96	0.001
431.17	0.001
431.37	0.001
431.58	0.001
431.78	0.001
431.99	0.001
432.19	0.001
432.40	0.001
432.60	0.001
432.80	0.001
433.01	0.001
433.21	0.001
433.42	0.001
433.62	0.001
433.83	0.001
434.03	0.001
434.23	0.001
434.44	0.001
434.64	0.001
434.85	0.001
435.05	0.001
435.26	0.001
435.46	0.001
435.66	0.001
435.87	0.001
436.07	0.001
436.28	0.001
436.48	0.001
436.69	0.001
436.89	0.001
437.09	0.001
437.30	0.001
437.50	0.001
437.71	0.001
437.91	0.001
438.11	0.001
438.32	0.001
438.52	0.001
438.73	0.001
438.93	0.001
439.13	0.001
439.34	0.001
439.54	0.001
439.75	0.001
439.95	0.001
440.15	0.001
440.36	0.001
440.56	0.001
440.77	0.001
440.97	0.001
441.17	0.001
441.38	0.001
441.58	0.001
441.79	0.001
441.99	0.001
442.19	0.001
442.40	0.001
442.60	0.001
442.81	0.001
443.01	0.001
443.21	0.001
443.42	0.001
443.62	0.001
443.82	0.001
444.03	0.001
444.23	0.001
444.44	0.001
444.64	0.001
444.84	0.001
445.05	0.001
445.25	0.001
445.45	0.001
445.66	0.001
445.86	0.001
446.06	0.001
446.27	0.001
446.47	0.001
446.68	0.001
446.88	0.001
447.08	0.001
447.29	0.001
447.49	0.001
447.69	0.001
447.90	0.001
448.10	0.001
448.30	0.001
448.51	0.001
448.71	0.001
448.91	0.001
449.12	0.001
449.32	0.001
449.52	0.001
449.73	0.001
449.93	0.001
450.14	0.001
450.34	0.001
450.54	0.000
450.75	0.001
450.95	0.001
451.15	0.001
451.36	0.001
451.56	0.001
451.76	0.001
451.97	0.001
452.17	0.001
452.37	0.001
452.58	0.001
452.78	0.001
452.98	0.001
453.19	0.001
453.39	0.001
453.59	0.001
453.79	0.001
454.00	0.001
454.20	0.001
454.40	0.001
454.61	0.001
454.81	0.001
455.01	0.001
455.22	0.001
455.42	0.001
455.62	0.001
455.83	0.001
456.03	0.001
456.23	0.001
456.44	0.001
456.64	0.001
456.84	0.001
457.04	0.001
457.25	0.001
457.45	0.001
457.65	0.001
457.86	0.001
458.06	0.001
458.26	0.001
458.47	0.001
458.67	0.001
458.87	0.001
459.07	0.001
459.28	0.001
459.48	0.001
459.68	0.001
459.89	0.001
460.09	0.001
460.29	0.001
460.49	0.001
460.70	0.001
460.90	0.001
461.10	0.001
461.31	0.001
461.51	0.001
461.71	0.001
461.91	0.001
