SpectraSuite Data File
++++++++++++++++++++++++++++++++++++
Date: Mon Jun 15 06:46:52 PDT 2015
User: introlabs
Dark Spectrum Present: Yes
Reference Spectrum Present: Yes
Number of Sampled Component Spectra: 1
Spectrometers: USB4H08886
Integration Time (usec): 44366 (USB4H08886)
Spectra Averaged: 20 (USB4H08886)
Boxcar Smoothing: 5 (USB4H08886)
Correct for Electrical Dark: Yes (USB4H08886)
Strobe/Lamp Enabled: No (USB4H08886)
Correct for Detector Non-linearity: Yes (USB4H08886)
Correct for Stray Light: Yes (USB4H08886)
Number of Pixels in Processed Spectrum: 3648
>>>>>Begin Processed Spectral Data<<<<<
178.14	-0.000
178.36	-0.000
178.57	-0.000
178.79	-0.000
179.01	-0.000
179.22	-1.237
179.44	-0.027
179.65	-0.088
179.87	-0.426
180.08	-0.252
180.30	0.168
180.52	0.178
180.73	0.341
180.95	0.076
181.16	0.043
181.38	0.044
181.59	0.037
181.81	0.013
182.03	0.013
182.24	0.006
182.46	0.002
182.67	-0.006
182.89	-0.011
183.10	-0.004
183.32	0.010
183.54	0.010
183.75	0.002
183.97	0.012
184.18	0.004
184.40	0.003
184.61	0.006
184.83	0.010
185.04	0.009
185.26	0.012
185.48	0.001
185.69	-0.010
185.91	-0.022
186.12	-0.025
186.34	-0.039
186.55	-0.035
186.77	-0.035
186.98	-0.038
187.20	-0.039
187.42	-0.038
187.63	-0.025
187.85	-0.029
188.06	-0.031
188.28	-0.023
188.49	-0.012
188.71	-0.004
188.92	0.001
189.14	0.003
189.36	0.007
189.57	0.006
189.79	-0.002
190.00	-0.009
190.22	0.001
190.43	0.004
190.65	0.008
190.86	0.005
191.08	0.002
191.29	0.005
191.51	0.004
191.72	0.009
191.94	0.012
192.16	0.015
192.37	0.011
192.59	0.005
192.80	0.004
193.02	-0.002
193.23	-0.002
193.45	0.007
193.66	-0.003
193.88	-0.008
194.09	-0.001
194.31	-0.004
194.52	-0.003
194.74	0.003
194.95	-0.001
195.17	-0.001
195.38	0.001
195.60	0.002
195.81	-0.007
196.03	-0.003
196.25	-0.001
196.46	-0.012
196.68	-0.011
196.89	-0.003
197.11	-0.011
197.32	-0.006
197.54	-0.007
197.75	-0.006
197.97	-0.013
198.18	-0.012
198.40	-0.014
198.61	-0.005
198.83	0.009
199.04	0.010
199.26	0.012
199.47	0.019
199.69	0.028
199.90	0.023
200.12	0.021
200.33	0.034
200.55	0.032
200.76	0.033
200.98	0.028
201.19	0.015
201.41	0.016
201.62	0.006
201.84	0.002
202.05	-0.009
202.27	0.004
202.48	0.009
202.70	-0.002
202.91	-0.002
203.13	-0.004
203.34	-0.007
203.56	-0.011
203.77	-0.013
203.99	-0.013
204.20	-0.014
204.42	-0.011
204.63	-0.017
204.85	-0.019
205.06	-0.011
205.28	-0.013
205.49	-0.009
205.71	0.001
205.92	0.002
206.14	-0.004
206.35	-0.002
206.56	-0.001
206.78	-0.001
206.99	-0.008
207.21	-0.011
207.42	-0.022
207.64	-0.018
207.85	-0.019
208.07	-0.031
208.28	-0.032
208.50	-0.033
208.71	-0.029
208.93	-0.024
209.14	-0.030
209.36	-0.023
209.57	-0.021
209.79	-0.008
210.00	-0.008
210.22	-0.009
210.43	0.001
210.64	0.005
210.86	0.011
211.07	0.008
211.29	0.005
211.50	0.014
211.72	0.008
211.93	0.006
212.15	0.003
212.36	0.000
212.58	0.004
212.79	-0.003
213.01	-0.013
213.22	-0.021
213.43	-0.018
213.65	-0.009
213.86	-0.013
214.08	-0.014
214.29	-0.015
214.51	-0.015
214.72	-0.013
214.94	-0.016
215.15	-0.016
215.36	-0.011
215.58	-0.007
215.79	-0.009
216.01	-0.014
216.22	-0.010
216.44	-0.013
216.65	-0.011
216.87	-0.017
217.08	-0.020
217.29	-0.020
217.51	-0.022
217.72	-0.021
217.94	-0.016
218.15	-0.022
218.37	-0.025
218.58	-0.024
218.80	-0.020
219.01	-0.022
219.22	-0.014
219.44	-0.010
219.65	-0.014
219.87	-0.008
220.08	-0.002
220.30	-0.007
220.51	0.001
220.72	0.000
220.94	-0.005
221.15	0.005
221.37	0.004
221.58	-0.001
221.79	-0.009
222.01	-0.005
222.22	-0.012
222.44	-0.012
222.65	-0.012
222.87	-0.018
223.08	-0.013
223.29	-0.007
223.51	-0.013
223.72	-0.011
223.94	-0.013
224.15	-0.008
224.36	-0.008
224.58	-0.001
224.79	-0.003
225.01	-0.002
225.22	0.003
225.44	-0.004
225.65	-0.013
225.86	-0.013
226.08	-0.016
226.29	-0.009
226.51	-0.011
226.72	-0.011
226.93	-0.011
227.15	-0.013
227.36	-0.012
227.58	-0.014
227.79	-0.012
228.00	-0.008
228.22	-0.003
228.43	-0.000
228.65	-0.008
228.86	-0.009
229.07	-0.009
229.29	-0.008
229.50	-0.008
229.72	-0.008
229.93	-0.006
230.14	-0.005
230.36	-0.007
230.57	-0.009
230.78	-0.011
231.00	-0.008
231.21	-0.007
231.43	-0.008
231.64	-0.008
231.85	-0.008
232.07	-0.005
232.28	-0.007
232.50	-0.006
232.71	-0.003
232.92	-0.001
233.14	-0.001
233.35	-0.002
233.56	-0.001
233.78	-0.002
233.99	-0.003
234.21	-0.001
234.42	-0.001
234.63	-0.003
234.85	-0.003
235.06	-0.005
235.27	-0.006
235.49	-0.005
235.70	-0.004
235.91	-0.005
236.13	-0.006
236.34	-0.007
236.56	-0.007
236.77	-0.008
236.98	-0.007
237.20	-0.007
237.41	-0.005
237.62	-0.006
237.84	-0.007
238.05	-0.005
238.26	-0.005
238.48	-0.004
238.69	-0.002
238.91	-0.003
239.12	-0.003
239.33	-0.002
239.55	-0.003
239.76	-0.003
239.97	-0.002
240.19	-0.000
240.40	-0.001
240.61	0.001
240.83	0.002
241.04	0.001
241.25	0.002
241.47	0.002
241.68	0.001
241.89	0.001
242.11	0.001
242.32	0.001
242.53	-0.000
242.75	-0.000
242.96	-0.000
243.17	-0.000
243.39	0.000
243.60	0.000
243.81	0.001
244.03	0.002
244.24	0.002
244.45	0.002
244.67	0.003
244.88	0.003
245.09	0.002
245.31	0.002
245.52	0.001
245.73	0.001
245.95	0.002
246.16	0.001
246.37	0.001
246.59	0.001
246.80	0.001
247.01	0.001
247.23	0.001
247.44	0.002
247.65	0.002
247.87	0.003
248.08	0.002
248.29	0.002
248.51	0.002
248.72	0.003
248.93	0.003
249.15	0.003
249.36	0.003
249.57	0.002
249.78	0.003
250.00	0.002
250.21	0.002
250.42	0.002
250.64	0.002
250.85	0.002
251.06	0.002
251.28	0.002
251.49	0.002
251.70	0.002
251.92	0.003
252.13	0.002
252.34	0.002
252.55	0.002
252.77	0.002
252.98	0.002
253.19	0.003
253.41	0.002
253.62	0.002
253.83	0.002
254.05	0.001
254.26	0.000
254.47	0.001
254.68	0.001
254.90	0.001
255.11	0.001
255.32	0.001
255.54	0.000
255.75	0.001
255.96	0.001
256.17	0.001
256.39	0.001
256.60	0.002
256.81	0.002
257.03	0.002
257.24	0.002
257.45	0.002
257.66	0.002
257.88	0.002
258.09	0.002
258.30	0.002
258.51	0.002
258.73	0.001
258.94	0.001
259.15	0.000
259.37	0.001
259.58	0.000
259.79	0.001
260.00	0.001
260.22	0.001
260.43	0.001
260.64	0.001
260.85	0.001
261.07	0.001
261.28	0.001
261.49	0.001
261.71	0.001
261.92	0.001
262.13	0.001
262.34	0.000
262.56	0.000
262.77	0.000
262.98	0.000
263.19	-0.000
263.41	-0.001
263.62	-0.001
263.83	-0.001
264.04	-0.001
264.26	-0.002
264.47	-0.002
264.68	-0.001
264.89	-0.002
265.11	-0.002
265.32	-0.001
265.53	-0.001
265.74	-0.001
265.96	-0.001
266.17	-0.002
266.38	-0.002
266.59	-0.002
266.81	-0.001
267.02	-0.002
267.23	-0.002
267.44	-0.002
267.65	-0.002
267.87	-0.002
268.08	-0.002
268.29	-0.001
268.50	-0.001
268.72	-0.001
268.93	-0.001
269.14	-0.001
269.35	-0.001
269.57	-0.001
269.78	-0.001
269.99	-0.001
270.20	-0.001
270.41	-0.002
270.63	-0.002
270.84	-0.002
271.05	-0.002
271.26	-0.002
271.48	-0.002
271.69	-0.002
271.90	-0.002
272.11	-0.003
272.32	-0.002
272.54	-0.002
272.75	-0.002
272.96	-0.002
273.17	-0.002
273.39	-0.002
273.60	-0.002
273.81	-0.002
274.02	-0.002
274.23	-0.002
274.45	-0.001
274.66	-0.002
274.87	-0.002
275.08	-0.002
275.29	-0.002
275.51	-0.002
275.72	-0.002
275.93	-0.002
276.14	-0.002
276.35	-0.002
276.57	-0.003
276.78	-0.003
276.99	-0.003
277.20	-0.003
277.41	-0.003
277.63	-0.003
277.84	-0.003
278.05	-0.003
278.26	-0.003
278.47	-0.003
278.69	-0.003
278.90	-0.002
279.11	-0.003
279.32	-0.002
279.53	-0.002
279.74	-0.002
279.96	-0.002
280.17	-0.002
280.38	-0.002
280.59	-0.002
280.80	-0.002
281.02	-0.002
281.23	-0.002
281.44	-0.001
281.65	-0.001
281.86	-0.002
282.07	-0.002
282.29	-0.002
282.50	-0.002
282.71	-0.001
282.92	-0.001
283.13	-0.001
283.35	-0.001
283.56	-0.001
283.77	-0.001
283.98	-0.001
284.19	-0.001
284.40	-0.001
284.62	-0.001
284.83	-0.001
285.04	-0.001
285.25	-0.001
285.46	-0.001
285.67	-0.001
285.88	-0.001
286.10	-0.001
286.31	-0.001
286.52	-0.001
286.73	-0.001
286.94	-0.001
287.15	-0.001
287.37	-0.001
287.58	-0.001
287.79	-0.000
288.00	-0.000
288.21	0.000
288.42	0.001
288.63	0.000
288.85	0.001
289.06	0.001
289.27	0.001
289.48	0.001
289.69	0.001
289.90	0.001
290.11	0.001
290.33	0.001
290.54	0.001
290.75	0.001
290.96	0.001
291.17	0.001
291.38	0.001
291.59	0.001
291.81	0.001
292.02	0.001
292.23	0.001
292.44	0.001
292.65	0.001
292.86	0.002
293.07	0.002
293.28	0.002
293.50	0.002
293.71	0.002
293.92	0.002
294.13	0.002
294.34	0.001
294.55	0.001
294.76	0.001
294.97	0.001
295.19	0.001
295.40	0.001
295.61	0.001
295.82	0.001
296.03	0.001
296.24	0.001
296.45	0.001
296.66	0.002
296.87	0.002
297.09	0.002
297.30	0.002
297.51	0.001
297.72	0.001
297.93	0.002
298.14	0.001
298.35	0.001
298.56	0.001
298.77	0.001
298.99	0.002
299.20	0.001
299.41	0.001
299.62	0.001
299.83	0.001
300.04	0.001
300.25	0.001
300.46	0.001
300.67	0.001
300.88	0.001
301.10	0.001
301.31	0.001
301.52	0.001
301.73	0.002
301.94	0.002
302.15	0.002
302.36	0.002
302.57	0.002
302.78	0.002
302.99	0.002
303.20	0.002
303.41	0.002
303.63	0.002
303.84	0.001
304.05	0.001
304.26	0.001
304.47	0.001
304.68	0.001
304.89	0.001
305.10	0.001
305.31	0.001
305.52	0.001
305.73	0.001
305.94	0.001
306.15	0.001
306.37	0.001
306.58	0.001
306.79	0.001
307.00	0.001
307.21	0.001
307.42	0.001
307.63	0.001
307.84	0.001
308.05	0.001
308.26	0.001
308.47	0.001
308.68	0.001
308.89	0.001
309.10	0.001
309.31	0.001
309.52	0.001
309.73	0.001
309.95	0.001
310.16	0.001
310.37	0.001
310.58	0.001
310.79	0.001
311.00	0.001
311.21	0.001
311.42	0.001
311.63	0.001
311.84	0.001
312.05	0.001
312.26	0.001
312.47	0.001
312.68	0.001
312.89	0.001
313.10	0.001
313.31	0.001
313.52	0.001
313.73	0.001
313.94	0.001
314.15	0.001
314.36	0.001
314.57	0.001
314.78	0.001
314.99	0.001
315.21	0.001
315.42	0.001
315.63	0.001
315.84	0.001
316.05	0.001
316.26	0.001
316.47	0.001
316.68	0.001
316.89	0.001
317.10	0.001
317.31	0.001
317.52	0.001
317.73	0.001
317.94	0.001
318.15	0.001
318.36	0.001
318.57	0.001
318.78	0.001
318.99	0.001
319.20	0.001
319.41	0.001
319.62	0.001
319.83	0.001
320.04	0.001
320.25	0.001
320.46	0.001
320.67	0.001
320.88	0.001
321.09	0.001
321.30	0.001
321.51	0.001
321.72	0.001
321.93	0.001
322.14	0.001
322.35	0.001
322.56	0.001
322.77	0.001
322.98	0.001
323.19	0.001
323.40	0.001
323.61	0.001
323.82	0.001
324.03	0.001
324.24	0.001
324.45	0.001
324.66	0.001
324.87	0.001
325.08	0.001
325.29	0.001
325.50	0.001
325.71	0.001
325.92	0.001
326.13	0.001
326.34	0.001
326.55	0.001
326.76	0.001
326.97	0.001
327.18	0.001
327.39	0.001
327.60	0.001
327.80	0.001
328.01	0.001
328.22	0.001
328.43	0.001
328.64	0.001
328.85	0.001
329.06	0.001
329.27	0.001
329.48	0.001
329.69	0.001
329.90	0.001
330.11	0.001
330.32	0.001
330.53	0.001
330.74	0.001
330.95	0.001
331.16	0.001
331.37	0.001
331.58	0.001
331.79	0.001
332.00	0.001
332.21	0.001
332.42	0.001
332.63	0.001
332.83	0.001
333.04	0.001
333.25	0.001
333.46	0.001
333.67	0.001
333.88	0.001
334.09	0.001
334.30	0.001
334.51	0.001
334.72	0.001
334.93	0.001
335.14	0.001
335.35	0.001
335.56	0.001
335.77	0.001
335.98	0.001
336.18	0.001
336.39	0.001
336.60	0.001
336.81	0.001
337.02	0.001
337.23	0.001
337.44	0.001
337.65	0.001
337.86	0.001
338.07	0.001
338.28	0.001
338.49	0.001
338.70	0.001
338.91	0.001
339.11	0.001
339.32	0.001
339.53	0.001
339.74	0.001
339.95	0.001
340.16	0.001
340.37	0.001
340.58	0.001
340.79	0.001
341.00	0.001
341.21	0.001
341.41	0.001
341.62	0.001
341.83	0.001
342.04	0.001
342.25	0.001
342.46	0.001
342.67	0.001
342.88	0.001
343.09	0.001
343.30	0.001
343.50	0.001
343.71	0.001
343.92	0.001
344.13	0.001
344.34	0.001
344.55	0.001
344.76	0.001
344.97	0.001
345.18	0.001
345.38	0.001
345.59	0.001
345.80	0.001
346.01	0.001
346.22	0.001
346.43	0.001
346.64	0.001
346.85	0.001
347.06	0.001
347.26	0.001
347.47	0.001
347.68	0.001
347.89	0.001
348.10	0.001
348.31	0.001
348.52	0.001
348.73	0.001
348.93	0.001
349.14	0.001
349.35	0.001
349.56	0.001
349.77	0.001
349.98	0.001
350.19	0.001
350.39	0.001
350.60	0.001
350.81	0.001
351.02	0.001
351.23	0.001
351.44	0.001
351.65	0.001
351.86	0.001
352.06	0.001
352.27	0.001
352.48	0.001
352.69	0.001
352.90	0.001
353.11	0.001
353.31	0.001
353.52	0.001
353.73	0.001
353.94	0.001
354.15	0.001
354.36	0.001
354.57	0.001
354.77	0.001
354.98	0.001
355.19	0.001
355.40	0.001
355.61	0.001
355.82	0.001
356.02	0.001
356.23	0.001
356.44	0.001
356.65	0.001
356.86	0.001
357.07	0.001
357.27	0.001
357.48	0.001
357.69	0.001
357.90	0.001
358.11	0.001
358.32	0.001
358.52	0.001
358.73	0.001
358.94	0.001
359.15	0.001
359.36	0.001
359.56	0.001
359.77	0.001
359.98	0.001
360.19	0.001
360.40	0.001
360.61	0.001
360.81	0.001
361.02	0.001
361.23	0.001
361.44	0.001
361.65	0.001
361.85	0.001
362.06	0.001
362.27	0.001
362.48	0.001
362.69	0.001
362.89	0.001
363.10	0.001
363.31	0.001
363.52	0.001
363.73	0.001
363.93	0.001
364.14	0.001
364.35	0.001
364.56	0.001
364.77	0.002
364.97	0.002
365.18	0.002
365.39	0.002
365.60	0.001
365.81	0.001
366.01	0.002
366.22	0.001
366.43	0.001
366.64	0.001
366.84	0.001
367.05	0.001
367.26	0.001
367.47	0.001
367.68	0.001
367.88	0.001
368.09	0.001
368.30	0.001
368.51	0.001
368.71	0.001
368.92	0.001
369.13	0.001
369.34	0.001
369.55	0.001
369.75	0.001
369.96	0.001
370.17	0.001
370.38	0.001
370.58	0.001
370.79	0.001
371.00	0.001
371.21	0.001
371.41	0.001
371.62	0.001
371.83	0.001
372.04	0.001
372.24	0.001
372.45	0.001
372.66	0.001
372.87	0.001
373.07	0.001
373.28	0.001
373.49	0.001
373.70	0.001
373.90	0.001
374.11	0.001
374.32	0.001
374.53	0.001
374.73	0.001
374.94	0.001
375.15	0.001
375.36	0.001
375.56	0.001
375.77	0.001
375.98	0.001
376.19	0.001
376.39	0.001
376.60	0.001
376.81	0.001
377.02	0.001
377.22	0.001
377.43	0.001
377.64	0.001
377.84	0.001
378.05	0.001
378.26	0.001
378.47	0.001
378.67	0.001
378.88	0.001
379.09	0.001
379.30	0.001
379.50	0.001
379.71	0.001
379.92	0.001
380.12	0.001
380.33	0.001
380.54	0.001
380.75	0.001
380.95	0.001
381.16	0.001
381.37	0.001
381.57	0.001
381.78	0.000
381.99	0.001
382.20	0.001
382.40	0.001
382.61	0.001
382.82	0.001
383.02	0.001
383.23	0.001
383.44	0.001
383.64	0.001
383.85	0.001
384.06	0.001
384.27	0.001
384.47	0.001
384.68	0.001
384.89	0.001
385.09	0.001
385.30	0.001
385.51	0.001
385.71	0.001
385.92	0.001
386.13	0.001
386.33	0.001
386.54	0.001
386.75	0.001
386.95	0.001
387.16	0.001
387.37	0.001
387.58	0.001
387.78	0.001
387.99	0.001
388.20	0.001
388.40	0.001
388.61	0.001
388.82	0.001
389.02	0.001
389.23	0.001
389.44	0.001
389.64	0.001
389.85	0.001
390.06	0.001
390.26	0.001
390.47	0.001
390.68	0.001
390.88	0.001
391.09	0.001
391.30	0.001
391.50	0.001
391.71	0.001
391.92	0.001
392.12	0.001
392.33	0.001
392.53	0.001
392.74	0.001
392.95	0.001
393.15	0.001
393.36	0.001
393.57	0.001
393.77	0.001
393.98	0.001
394.19	0.001
394.39	0.001
394.60	0.001
394.81	0.001
395.01	0.001
395.22	0.001
395.43	0.001
395.63	0.001
395.84	0.001
396.04	0.001
396.25	0.001
396.46	0.001
396.66	0.001
396.87	0.001
397.08	0.001
397.28	0.001
397.49	0.001
397.69	0.001
397.90	0.001
398.11	0.001
398.31	0.001
398.52	0.001
398.73	0.001
398.93	0.001
399.14	0.001
399.34	0.001
399.55	0.001
399.76	0.001
399.96	0.000
400.17	0.000
400.37	0.000
400.58	0.001
400.79	0.001
400.99	0.001
401.20	0.001
401.41	0.001
401.61	0.001
401.82	0.001
402.02	0.001
402.23	0.001
402.44	0.001
402.64	0.001
402.85	0.001
403.05	0.001
403.26	0.001
403.47	0.001
403.67	0.001
403.88	0.001
404.08	0.001
404.29	0.000
404.50	0.000
404.70	0.000
404.91	0.000
405.11	-0.000
405.32	0.000
405.52	0.000
405.73	0.000
405.94	0.000
406.14	0.000
406.35	0.000
406.55	0.000
406.76	0.000
406.97	0.001
407.17	0.001
407.38	0.001
407.58	0.001
407.79	0.001
407.99	0.001
408.20	0.001
408.41	0.001
408.61	0.001
408.82	0.001
409.02	0.001
409.23	0.001
409.43	0.001
409.64	0.001
409.84	0.001
410.05	0.001
410.26	0.001
410.46	0.001
410.67	0.001
410.87	0.001
411.08	0.001
411.28	0.001
411.49	0.001
411.69	0.001
411.90	0.001
412.11	0.001
412.31	0.001
412.52	0.001
412.72	0.001
412.93	0.001
413.13	0.001
413.34	0.001
413.54	0.000
413.75	0.001
413.95	0.000
414.16	0.001
414.37	0.001
414.57	0.001
414.78	0.001
414.98	0.001
415.19	0.001
415.39	0.001
415.60	0.001
415.80	0.001
416.01	0.001
416.21	0.001
416.42	0.001
416.62	0.001
416.83	0.001
417.03	0.001
417.24	0.001
417.44	0.001
417.65	0.001
417.86	0.001
418.06	0.001
418.27	0.001
418.47	0.001
418.68	0.001
418.88	0.001
419.09	0.001
419.29	0.001
419.50	0.001
419.70	0.001
419.91	0.000
420.11	0.001
420.32	0.000
420.52	0.000
420.73	0.000
420.93	0.000
421.14	0.000
421.34	0.000
421.55	0.000
421.75	0.000
421.96	0.000
422.16	0.001
422.37	0.000
422.57	0.000
422.78	0.001
422.98	0.000
423.19	0.001
423.39	0.001
423.60	0.000
423.80	0.000
424.01	0.001
424.21	0.001
424.42	0.001
424.62	0.001
424.83	0.001
425.03	0.001
425.23	0.001
425.44	0.001
425.64	0.001
425.85	0.001
426.05	0.001
426.26	0.001
426.46	0.001
426.67	0.001
426.87	0.001
427.08	0.001
427.28	0.001
427.49	0.001
427.69	0.001
427.90	0.001
428.10	0.001
428.31	0.001
428.51	0.001
428.71	0.001
428.92	0.001
429.12	0.001
429.33	0.001
429.53	0.001
429.74	0.001
429.94	0.001
430.15	0.001
430.35	0.001
430.56	0.001
430.76	0.001
430.96	0.001
431.17	0.001
431.37	0.001
431.58	0.001
431.78	0.001
431.99	0.000
432.19	0.000
432.40	0.000
432.60	0.000
432.80	0.000
433.01	0.000
433.21	0.000
433.42	0.000
433.62	0.000
433.83	0.000
434.03	0.001
434.23	0.001
434.44	0.001
434.64	0.001
434.85	0.001
435.05	0.001
435.26	0.001
435.46	0.001
435.66	0.001
435.87	0.000
436.07	0.000
436.28	0.000
436.48	0.000
436.69	0.000
436.89	0.001
437.09	0.001
437.30	0.001
437.50	0.001
437.71	0.001
437.91	0.001
438.11	0.001
438.32	0.001
438.52	0.001
438.73	0.001
438.93	0.001
439.13	0.001
439.34	0.001
439.54	0.001
439.75	0.001
439.95	0.001
440.15	0.001
440.36	0.001
440.56	0.001
440.77	0.000
440.97	0.000
441.17	0.000
441.38	0.000
441.58	0.000
441.79	0.000
441.99	0.000
442.19	0.000
442.40	0.000
442.60	0.000
442.81	0.000
443.01	0.000
443.21	0.000
443.42	0.000
443.62	0.000
443.82	0.000
444.03	0.000
444.23	0.000
444.44	0.001
444.64	0.000
444.84	0.000
445.05	0.001
445.25	0.001
445.45	0.000
445.66	0.000
445.86	0.000
446.06	0.000
446.27	0.000
446.47	0.001
446.68	0.000
446.88	0.000
447.08	0.000
447.29	0.000
447.49	0.001
447.69	0.000
447.90	0.001
448.10	0.001
448.30	0.001
448.51	0.001
448.71	0.001
448.91	0.000
449.12	0.001
449.32	0.000
449.52	0.001
449.73	0.000
449.93	0.000
450.14	0.000
450.34	0.001
450.54	0.001
450.75	0.000
450.95	0.000
451.15	0.000
451.36	0.000
451.56	0.001
451.76	0.001
451.97	0.001
452.17	0.001
452.37	0.001
452.58	0.001
452.78	0.001
452.98	0.000
453.19	0.001
453.39	0.001
453.59	0.000
453.79	0.000
454.00	0.000
454.20	0.000
454.40	0.000
454.61	0.000
454.81	0.000
455.01	0.000
455.22	0.000
455.42	0.000
455.62	0.000
455.83	0.000
456.03	0.000
456.23	0.000
456.44	0.000
456.64	0.000
456.84	0.000
457.04	0.000
457.25	0.000
457.45	0.000
457.65	0.000
457.86	0.000
458.06	0.000
458.26	0.000
458.47	0.000
458.67	0.000
458.87	0.000
459.07	0.000
459.28	0.001
459.48	0.001
459.68	0.001
459.89	0.001
460.09	0.001
460.29	0.001
460.49	0.001
460.70	0.001
460.90	0.001
461.10	0.001
461.31	0.001
461.51	0.001
461.71	0.001
461.91	0.001
462.12	0.001
462.32	0.000
462.52	0.000
462.72	0.000
462.93	0.000
