SpectraSuite Data File
++++++++++++++++++++++++++++++++++++
Date: Mon Jun 15 05:24:02 PDT 2015
User: introlabs
Dark Spectrum Present: Yes
Reference Spectrum Present: Yes
Number of Sampled Component Spectra: 1
Spectrometers: USB4H08886
Integration Time (usec): 99009 (USB4H08886)
Spectra Averaged: 20 (USB4H08886)
Boxcar Smoothing: 5 (USB4H08886)
Correct for Electrical Dark: Yes (USB4H08886)
Strobe/Lamp Enabled: No (USB4H08886)
Correct for Detector Non-linearity: Yes (USB4H08886)
Correct for Stray Light: Yes (USB4H08886)
Number of Pixels in Processed Spectrum: 3648
>>>>>Begin Processed Spectral Data<<<<<
178.14	-0.000
178.36	-0.000
178.57	-0.000
178.79	-0.692
179.01	0.218
179.22	-0.477
179.44	-0.213
179.65	-0.087
179.87	0.072
180.08	0.075
180.30	-0.108
180.52	-0.146
180.73	-0.754
180.95	-0.207
181.16	-0.467
181.38	-0.386
181.59	-0.365
181.81	-0.360
182.03	-0.373
182.24	-0.374
182.46	-0.378
182.67	-0.388
182.89	-0.382
183.10	-0.391
183.32	-0.382
183.54	-0.370
183.75	-0.378
183.97	-0.380
184.18	-0.375
184.40	-0.373
184.61	-0.382
184.83	-0.405
185.04	-0.408
185.26	-0.422
185.48	-0.399
185.69	-0.410
185.91	-0.413
186.12	-0.415
186.34	-0.417
186.55	-0.413
186.77	-0.403
186.98	-0.390
187.20	-0.381
187.42	-0.384
187.63	-0.392
187.85	-0.412
188.06	-0.409
188.28	-0.396
188.49	-0.396
188.71	-0.388
188.92	-0.391
189.14	-0.390
189.36	-0.378
189.57	-0.388
189.79	-0.376
190.00	-0.358
190.22	-0.346
190.43	-0.342
190.65	-0.356
190.86	-0.344
191.08	-0.341
191.29	-0.334
191.51	-0.357
191.72	-0.359
191.94	-0.343
192.16	-0.346
192.37	-0.336
192.59	-0.339
192.80	-0.354
193.02	-0.335
193.23	-0.345
193.45	-0.353
193.66	-0.367
193.88	-0.354
194.09	-0.369
194.31	-0.369
194.52	-0.373
194.74	-0.398
194.95	-0.390
195.17	-0.392
195.38	-0.414
195.60	-0.413
195.81	-0.406
196.03	-0.405
196.25	-0.398
196.46	-0.402
196.68	-0.414
196.89	-0.404
197.11	-0.391
197.32	-0.406
197.54	-0.402
197.75	-0.404
197.97	-0.394
198.18	-0.389
198.40	-0.392
198.61	-0.402
198.83	-0.387
199.04	-0.384
199.26	-0.384
199.47	-0.381
199.69	-0.373
199.90	-0.368
200.12	-0.354
200.33	-0.361
200.55	-0.371
200.76	-0.375
200.98	-0.363
201.19	-0.363
201.41	-0.364
201.62	-0.372
201.84	-0.378
202.05	-0.379
202.27	-0.371
202.48	-0.384
202.70	-0.377
202.91	-0.380
203.13	-0.376
203.34	-0.382
203.56	-0.396
203.77	-0.388
203.99	-0.381
204.20	-0.364
204.42	-0.365
204.63	-0.363
204.85	-0.357
205.06	-0.360
205.28	-0.352
205.49	-0.350
205.71	-0.356
205.92	-0.358
206.14	-0.361
206.35	-0.359
206.56	-0.360
206.78	-0.351
206.99	-0.350
207.21	-0.355
207.42	-0.362
207.64	-0.370
207.85	-0.360
208.07	-0.356
208.28	-0.353
208.50	-0.346
208.71	-0.344
208.93	-0.349
209.14	-0.359
209.36	-0.376
209.57	-0.381
209.79	-0.386
210.00	-0.375
210.22	-0.386
210.43	-0.379
210.64	-0.378
210.86	-0.387
211.07	-0.394
211.29	-0.398
211.50	-0.401
211.72	-0.391
211.93	-0.384
212.15	-0.374
212.36	-0.370
212.58	-0.366
212.79	-0.367
213.01	-0.354
213.22	-0.357
213.43	-0.356
213.65	-0.354
213.86	-0.349
214.08	-0.351
214.29	-0.344
214.51	-0.342
214.72	-0.356
214.94	-0.361
215.15	-0.365
215.36	-0.384
215.58	-0.380
215.79	-0.383
216.01	-0.392
216.22	-0.391
216.44	-0.401
216.65	-0.407
216.87	-0.408
217.08	-0.399
217.29	-0.392
217.51	-0.393
217.72	-0.380
217.94	-0.390
218.15	-0.389
218.37	-0.384
218.58	-0.393
218.80	-0.381
219.01	-0.378
219.22	-0.384
219.44	-0.390
219.65	-0.387
219.87	-0.380
220.08	-0.384
220.30	-0.377
220.51	-0.378
220.72	-0.377
220.94	-0.375
221.15	-0.388
221.37	-0.396
221.58	-0.385
221.79	-0.384
222.01	-0.393
222.22	-0.397
222.44	-0.400
222.65	-0.393
222.87	-0.397
223.08	-0.394
223.29	-0.394
223.51	-0.387
223.72	-0.375
223.94	-0.385
224.15	-0.385
224.36	-0.383
224.58	-0.398
224.79	-0.389
225.01	-0.407
225.22	-0.404
225.44	-0.418
225.65	-0.411
225.86	-0.404
226.08	-0.416
226.29	-0.410
226.51	-0.416
226.72	-0.417
226.93	-0.418
227.15	-0.431
227.36	-0.417
227.58	-0.417
227.79	-0.416
228.00	-0.418
228.22	-0.430
228.43	-0.428
228.65	-0.433
228.86	-0.436
229.07	-0.428
229.29	-0.414
229.50	-0.416
229.72	-0.420
229.93	-0.426
230.14	-0.426
230.36	-0.427
230.57	-0.422
230.78	-0.432
231.00	-0.432
231.21	-0.430
231.43	-0.442
231.64	-0.451
231.85	-0.445
232.07	-0.446
232.28	-0.442
232.50	-0.444
232.71	-0.445
232.92	-0.443
233.14	-0.437
233.35	-0.439
233.56	-0.438
233.78	-0.434
233.99	-0.435
234.21	-0.440
234.42	-0.441
234.63	-0.449
234.85	-0.451
235.06	-0.453
235.27	-0.457
235.49	-0.463
235.70	-0.466
235.91	-0.471
236.13	-0.471
236.34	-0.472
236.56	-0.472
236.77	-0.473
236.98	-0.470
237.20	-0.468
237.41	-0.471
237.62	-0.471
237.84	-0.470
238.05	-0.470
238.26	-0.465
238.48	-0.468
238.69	-0.466
238.91	-0.466
239.12	-0.466
239.33	-0.466
239.55	-0.464
239.76	-0.463
239.97	-0.461
240.19	-0.461
240.40	-0.460
240.61	-0.462
240.83	-0.461
241.04	-0.461
241.25	-0.462
241.47	-0.461
241.68	-0.460
241.89	-0.460
242.11	-0.461
242.32	-0.460
242.53	-0.461
242.75	-0.461
242.96	-0.461
243.17	-0.460
243.39	-0.459
243.60	-0.458
243.81	-0.457
244.03	-0.456
244.24	-0.457
244.45	-0.455
244.67	-0.454
244.88	-0.452
245.09	-0.452
245.31	-0.452
245.52	-0.451
245.73	-0.451
245.95	-0.450
246.16	-0.450
246.37	-0.450
246.59	-0.450
246.80	-0.450
247.01	-0.450
247.23	-0.451
247.44	-0.450
247.65	-0.449
247.87	-0.449
248.08	-0.448
248.29	-0.449
248.51	-0.448
248.72	-0.448
248.93	-0.447
249.15	-0.447
249.36	-0.448
249.57	-0.447
249.78	-0.447
250.00	-0.446
250.21	-0.446
250.42	-0.447
250.64	-0.446
250.85	-0.446
251.06	-0.446
251.28	-0.447
251.49	-0.446
251.70	-0.446
251.92	-0.446
252.13	-0.446
252.34	-0.447
252.55	-0.447
252.77	-0.446
252.98	-0.447
253.19	-0.447
253.41	-0.446
253.62	-0.446
253.83	-0.446
254.05	-0.446
254.26	-0.445
254.47	-0.445
254.68	-0.445
254.90	-0.444
255.11	-0.444
255.32	-0.443
255.54	-0.443
255.75	-0.444
255.96	-0.444
256.17	-0.444
256.39	-0.444
256.60	-0.444
256.81	-0.444
257.03	-0.444
257.24	-0.444
257.45	-0.445
257.66	-0.445
257.88	-0.445
258.09	-0.445
258.30	-0.444
258.51	-0.444
258.73	-0.444
258.94	-0.444
259.15	-0.444
259.37	-0.444
259.58	-0.444
259.79	-0.444
260.00	-0.444
260.22	-0.444
260.43	-0.444
260.64	-0.444
260.85	-0.445
261.07	-0.445
261.28	-0.445
261.49	-0.445
261.71	-0.444
261.92	-0.444
262.13	-0.444
262.34	-0.444
262.56	-0.444
262.77	-0.444
262.98	-0.443
263.19	-0.443
263.41	-0.443
263.62	-0.442
263.83	-0.442
264.04	-0.443
264.26	-0.443
264.47	-0.442
264.68	-0.442
264.89	-0.441
265.11	-0.441
265.32	-0.441
265.53	-0.441
265.74	-0.441
265.96	-0.442
266.17	-0.441
266.38	-0.441
266.59	-0.441
266.81	-0.441
267.02	-0.441
267.23	-0.441
267.44	-0.441
267.65	-0.440
267.87	-0.440
268.08	-0.440
268.29	-0.440
268.50	-0.439
268.72	-0.439
268.93	-0.439
269.14	-0.439
269.35	-0.439
269.57	-0.439
269.78	-0.438
269.99	-0.439
270.20	-0.439
270.41	-0.439
270.63	-0.439
270.84	-0.438
271.05	-0.438
271.26	-0.437
271.48	-0.437
271.69	-0.436
271.90	-0.436
272.11	-0.436
272.32	-0.436
272.54	-0.435
272.75	-0.435
272.96	-0.434
273.17	-0.434
273.39	-0.434
273.60	-0.433
273.81	-0.433
274.02	-0.432
274.23	-0.432
274.45	-0.431
274.66	-0.431
274.87	-0.430
275.08	-0.430
275.29	-0.429
275.51	-0.429
275.72	-0.428
275.93	-0.428
276.14	-0.427
276.35	-0.427
276.57	-0.426
276.78	-0.425
276.99	-0.425
277.20	-0.425
277.41	-0.424
277.63	-0.423
277.84	-0.423
278.05	-0.423
278.26	-0.422
278.47	-0.422
278.69	-0.422
278.90	-0.421
279.11	-0.421
279.32	-0.421
279.53	-0.420
279.74	-0.420
279.96	-0.419
280.17	-0.419
280.38	-0.418
280.59	-0.417
280.80	-0.417
281.02	-0.416
281.23	-0.416
281.44	-0.415
281.65	-0.415
281.86	-0.414
282.07	-0.414
282.29	-0.413
282.50	-0.413
282.71	-0.412
282.92	-0.412
283.13	-0.412
283.35	-0.411
283.56	-0.411
283.77	-0.410
283.98	-0.410
284.19	-0.409
284.40	-0.409
284.62	-0.408
284.83	-0.408
285.04	-0.407
285.25	-0.406
285.46	-0.406
285.67	-0.406
285.88	-0.405
286.10	-0.405
286.31	-0.404
286.52	-0.404
286.73	-0.403
286.94	-0.402
287.15	-0.402
287.37	-0.401
287.58	-0.401
287.79	-0.400
288.00	-0.400
288.21	-0.399
288.42	-0.399
288.63	-0.398
288.85	-0.398
289.06	-0.397
289.27	-0.397
289.48	-0.396
289.69	-0.396
289.90	-0.395
290.11	-0.395
290.33	-0.395
290.54	-0.394
290.75	-0.394
290.96	-0.393
291.17	-0.393
291.38	-0.392
291.59	-0.392
291.81	-0.392
292.02	-0.391
292.23	-0.391
292.44	-0.391
292.65	-0.390
292.86	-0.390
293.07	-0.390
293.28	-0.390
293.50	-0.389
293.71	-0.389
293.92	-0.389
294.13	-0.388
294.34	-0.388
294.55	-0.388
294.76	-0.388
294.97	-0.387
295.19	-0.387
295.40	-0.387
295.61	-0.386
295.82	-0.386
296.03	-0.386
296.24	-0.385
296.45	-0.385
296.66	-0.385
296.87	-0.385
297.09	-0.385
297.30	-0.385
297.51	-0.384
297.72	-0.384
297.93	-0.384
298.14	-0.384
298.35	-0.384
298.56	-0.384
298.77	-0.384
298.99	-0.383
299.20	-0.383
299.41	-0.383
299.62	-0.383
299.83	-0.383
300.04	-0.383
300.25	-0.382
300.46	-0.382
300.67	-0.382
300.88	-0.382
301.10	-0.381
301.31	-0.381
301.52	-0.381
301.73	-0.381
301.94	-0.381
302.15	-0.380
302.36	-0.380
302.57	-0.380
302.78	-0.380
302.99	-0.380
303.20	-0.379
303.41	-0.379
303.63	-0.379
303.84	-0.379
304.05	-0.379
304.26	-0.379
304.47	-0.379
304.68	-0.378
304.89	-0.378
305.10	-0.378
305.31	-0.378
305.52	-0.378
305.73	-0.378
305.94	-0.377
306.15	-0.377
306.37	-0.377
306.58	-0.377
306.79	-0.377
307.00	-0.377
307.21	-0.377
307.42	-0.376
307.63	-0.376
307.84	-0.376
308.05	-0.376
308.26	-0.376
308.47	-0.376
308.68	-0.376
308.89	-0.376
309.10	-0.375
309.31	-0.375
309.52	-0.375
309.73	-0.375
309.95	-0.375
310.16	-0.375
310.37	-0.375
310.58	-0.374
310.79	-0.374
311.00	-0.374
311.21	-0.374
311.42	-0.374
311.63	-0.374
311.84	-0.374
312.05	-0.373
312.26	-0.373
312.47	-0.373
312.68	-0.373
312.89	-0.373
313.10	-0.373
313.31	-0.373
313.52	-0.373
313.73	-0.372
313.94	-0.372
314.15	-0.372
314.36	-0.372
314.57	-0.372
314.78	-0.372
314.99	-0.371
315.21	-0.371
315.42	-0.371
315.63	-0.371
315.84	-0.371
316.05	-0.371
316.26	-0.371
316.47	-0.371
316.68	-0.371
316.89	-0.371
317.10	-0.371
317.31	-0.370
317.52	-0.370
317.73	-0.370
317.94	-0.370
318.15	-0.370
318.36	-0.370
318.57	-0.370
318.78	-0.370
318.99	-0.369
319.20	-0.369
319.41	-0.369
319.62	-0.369
319.83	-0.369
320.04	-0.369
320.25	-0.369
320.46	-0.369
320.67	-0.369
320.88	-0.369
321.09	-0.369
321.30	-0.369
321.51	-0.369
321.72	-0.369
321.93	-0.369
322.14	-0.369
322.35	-0.369
322.56	-0.368
322.77	-0.368
322.98	-0.368
323.19	-0.368
323.40	-0.368
323.61	-0.368
323.82	-0.368
324.03	-0.367
324.24	-0.367
324.45	-0.367
324.66	-0.367
324.87	-0.367
325.08	-0.367
325.29	-0.367
325.50	-0.367
325.71	-0.367
325.92	-0.367
326.13	-0.366
326.34	-0.366
326.55	-0.366
326.76	-0.366
326.97	-0.366
327.18	-0.366
327.39	-0.366
327.60	-0.366
327.80	-0.366
328.01	-0.366
328.22	-0.366
328.43	-0.366
328.64	-0.366
328.85	-0.366
329.06	-0.366
329.27	-0.366
329.48	-0.366
329.69	-0.365
329.90	-0.365
330.11	-0.365
330.32	-0.365
330.53	-0.365
330.74	-0.365
330.95	-0.365
331.16	-0.365
331.37	-0.365
331.58	-0.364
331.79	-0.364
332.00	-0.364
332.21	-0.364
332.42	-0.364
332.63	-0.364
332.83	-0.364
333.04	-0.364
333.25	-0.364
333.46	-0.364
333.67	-0.364
333.88	-0.364
334.09	-0.364
334.30	-0.364
334.51	-0.364
334.72	-0.363
334.93	-0.363
335.14	-0.363
335.35	-0.363
335.56	-0.363
335.77	-0.363
335.98	-0.363
336.18	-0.363
336.39	-0.363
336.60	-0.363
336.81	-0.363
337.02	-0.363
337.23	-0.363
337.44	-0.363
337.65	-0.363
337.86	-0.363
338.07	-0.363
338.28	-0.363
338.49	-0.362
338.70	-0.362
338.91	-0.362
339.11	-0.362
339.32	-0.362
339.53	-0.363
339.74	-0.363
339.95	-0.363
340.16	-0.362
340.37	-0.362
340.58	-0.362
340.79	-0.362
341.00	-0.362
341.21	-0.362
341.41	-0.362
341.62	-0.362
341.83	-0.362
342.04	-0.362
342.25	-0.362
342.46	-0.362
342.67	-0.362
342.88	-0.362
343.09	-0.361
343.30	-0.361
343.50	-0.361
343.71	-0.361
343.92	-0.361
344.13	-0.361
344.34	-0.361
344.55	-0.361
344.76	-0.361
344.97	-0.361
345.18	-0.361
345.38	-0.361
345.59	-0.361
345.80	-0.361
346.01	-0.361
346.22	-0.361
346.43	-0.361
346.64	-0.361
346.85	-0.361
347.06	-0.361
347.26	-0.361
347.47	-0.361
347.68	-0.361
347.89	-0.360
348.10	-0.360
348.31	-0.360
348.52	-0.360
348.73	-0.360
348.93	-0.360
349.14	-0.361
349.35	-0.361
349.56	-0.361
349.77	-0.361
349.98	-0.361
350.19	-0.361
350.39	-0.361
350.60	-0.361
350.81	-0.361
351.02	-0.361
351.23	-0.361
351.44	-0.360
351.65	-0.360
351.86	-0.360
352.06	-0.360
352.27	-0.360
352.48	-0.360
352.69	-0.360
352.90	-0.360
353.11	-0.360
353.31	-0.360
353.52	-0.360
353.73	-0.359
353.94	-0.359
354.15	-0.359
354.36	-0.359
354.57	-0.360
354.77	-0.359
354.98	-0.359
355.19	-0.359
355.40	-0.359
355.61	-0.359
355.82	-0.359
356.02	-0.359
356.23	-0.359
356.44	-0.359
356.65	-0.359
356.86	-0.359
357.07	-0.358
357.27	-0.358
357.48	-0.358
357.69	-0.358
357.90	-0.358
358.11	-0.358
358.32	-0.358
358.52	-0.358
358.73	-0.358
358.94	-0.357
359.15	-0.357
359.36	-0.358
359.56	-0.358
359.77	-0.357
359.98	-0.357
360.19	-0.357
360.40	-0.357
360.61	-0.357
360.81	-0.357
361.02	-0.356
361.23	-0.356
361.44	-0.356
361.65	-0.356
361.85	-0.355
362.06	-0.355
362.27	-0.355
362.48	-0.355
362.69	-0.355
362.89	-0.354
363.10	-0.354
363.31	-0.354
363.52	-0.354
363.73	-0.354
363.93	-0.353
364.14	-0.353
364.35	-0.352
364.56	-0.351
364.77	-0.351
364.97	-0.350
365.18	-0.349
365.39	-0.349
365.60	-0.348
365.81	-0.348
366.01	-0.347
366.22	-0.346
366.43	-0.345
366.64	-0.345
366.84	-0.345
367.05	-0.344
367.26	-0.343
367.47	-0.344
367.68	-0.343
367.88	-0.343
368.09	-0.343
368.30	-0.343
368.51	-0.343
368.71	-0.342
368.92	-0.342
369.13	-0.343
369.34	-0.343
369.55	-0.343
369.75	-0.344
369.96	-0.345
370.17	-0.346
370.38	-0.346
370.58	-0.346
370.79	-0.347
371.00	-0.348
371.21	-0.348
371.41	-0.349
371.62	-0.349
371.83	-0.349
372.04	-0.349
372.24	-0.349
372.45	-0.349
372.66	-0.349
372.87	-0.349
373.07	-0.349
373.28	-0.349
373.49	-0.349
373.70	-0.349
373.90	-0.348
374.11	-0.349
374.32	-0.349
374.53	-0.349
374.73	-0.348
374.94	-0.349
375.15	-0.349
375.36	-0.348
375.56	-0.348
375.77	-0.348
375.98	-0.348
376.19	-0.348
376.39	-0.347
376.60	-0.347
376.81	-0.346
377.02	-0.346
377.22	-0.345
377.43	-0.345
377.64	-0.344
377.84	-0.344
378.05	-0.343
378.26	-0.342
378.47	-0.341
378.67	-0.341
378.88	-0.340
379.09	-0.339
379.30	-0.339
379.50	-0.339
379.71	-0.338
379.92	-0.338
380.12	-0.338
380.33	-0.338
380.54	-0.338
380.75	-0.339
380.95	-0.339
381.16	-0.340
381.37	-0.340
381.57	-0.341
381.78	-0.342
381.99	-0.342
382.20	-0.343
382.40	-0.344
382.61	-0.345
382.82	-0.345
383.02	-0.346
383.23	-0.347
383.44	-0.347
383.64	-0.347
383.85	-0.347
384.06	-0.347
384.27	-0.348
384.47	-0.348
384.68	-0.348
384.89	-0.348
385.09	-0.348
385.30	-0.348
385.51	-0.348
385.71	-0.348
385.92	-0.348
386.13	-0.347
386.33	-0.347
386.54	-0.347
386.75	-0.346
386.95	-0.346
387.16	-0.346
387.37	-0.346
387.58	-0.346
387.78	-0.346
387.99	-0.346
388.20	-0.345
388.40	-0.346
388.61	-0.345
388.82	-0.345
389.02	-0.345
389.23	-0.345
389.44	-0.345
389.64	-0.345
389.85	-0.345
390.06	-0.344
390.26	-0.344
390.47	-0.343
390.68	-0.342
390.88	-0.341
391.09	-0.340
391.30	-0.339
391.50	-0.337
391.71	-0.337
391.92	-0.335
392.12	-0.334
392.33	-0.333
392.53	-0.333
392.74	-0.332
392.95	-0.332
393.15	-0.331
393.36	-0.331
393.57	-0.331
393.77	-0.332
393.98	-0.332
394.19	-0.333
394.39	-0.334
394.60	-0.335
394.81	-0.336
395.01	-0.337
395.22	-0.339
395.43	-0.340
395.63	-0.340
395.84	-0.340
396.04	-0.341
396.25	-0.340
396.46	-0.340
396.66	-0.338
396.87	-0.337
397.08	-0.336
397.28	-0.334
397.49	-0.332
397.69	-0.331
397.90	-0.329
398.11	-0.328
398.31	-0.327
398.52	-0.326
398.73	-0.325
398.93	-0.324
399.14	-0.325
399.34	-0.325
399.55	-0.325
399.76	-0.325
399.96	-0.326
400.17	-0.328
400.37	-0.330
400.58	-0.331
400.79	-0.332
400.99	-0.334
401.20	-0.335
401.41	-0.337
401.61	-0.338
401.82	-0.340
402.02	-0.341
402.23	-0.342
402.44	-0.343
402.64	-0.343
402.85	-0.343
403.05	-0.343
403.26	-0.343
403.47	-0.343
403.67	-0.343
403.88	-0.342
404.08	-0.342
404.29	-0.342
404.50	-0.341
404.70	-0.341
404.91	-0.340
405.11	-0.340
405.32	-0.340
405.52	-0.340
405.73	-0.340
405.94	-0.340
406.14	-0.340
406.35	-0.340
406.55	-0.340
406.76	-0.341
406.97	-0.341
407.17	-0.341
407.38	-0.341
407.58	-0.341
407.79	-0.342
407.99	-0.342
408.20	-0.343
408.41	-0.343
408.61	-0.344
408.82	-0.344
409.02	-0.344
409.23	-0.344
409.43	-0.344
409.64	-0.344
409.84	-0.344
410.05	-0.344
410.26	-0.344
410.46	-0.345
410.67	-0.345
410.87	-0.344
411.08	-0.344
411.28	-0.344
411.49	-0.344
411.69	-0.344
411.90	-0.344
412.11	-0.344
412.31	-0.344
412.52	-0.344
412.72	-0.344
412.93	-0.344
413.13	-0.344
413.34	-0.345
413.54	-0.345
413.75	-0.345
413.95	-0.345
414.16	-0.345
414.37	-0.345
414.57	-0.345
414.78	-0.346
414.98	-0.346
415.19	-0.347
415.39	-0.347
415.60	-0.347
415.80	-0.347
416.01	-0.347
416.21	-0.347
416.42	-0.348
416.62	-0.348
416.83	-0.348
417.03	-0.348
417.24	-0.348
417.44	-0.348
417.65	-0.348
417.86	-0.348
418.06	-0.349
418.27	-0.348
418.47	-0.348
418.68	-0.348
418.88	-0.348
419.09	-0.347
419.29	-0.347
419.50	-0.346
419.70	-0.345
419.91	-0.344
420.11	-0.343
420.32	-0.342
420.52	-0.340
420.73	-0.339
420.93	-0.337
421.14	-0.336
421.34	-0.335
421.55	-0.334
421.75	-0.332
421.96	-0.332
422.16	-0.331
422.37	-0.330
422.57	-0.330
422.78	-0.330
422.98	-0.331
423.19	-0.332
423.39	-0.332
423.60	-0.333
423.80	-0.334
424.01	-0.335
424.21	-0.337
424.42	-0.339
424.62	-0.340
424.83	-0.342
425.03	-0.343
425.23	-0.344
425.44	-0.345
425.64	-0.346
425.85	-0.346
426.05	-0.346
426.26	-0.347
426.46	-0.347
426.67	-0.347
426.87	-0.347
427.08	-0.347
427.28	-0.346
427.49	-0.345
427.69	-0.344
427.90	-0.342
428.10	-0.341
428.31	-0.340
428.51	-0.338
428.71	-0.336
428.92	-0.334
429.12	-0.332
429.33	-0.329
429.53	-0.327
429.74	-0.326
429.94	-0.325
430.15	-0.323
430.35	-0.322
430.56	-0.322
430.76	-0.321
430.96	-0.321
431.17	-0.322
431.37	-0.323
431.58	-0.324
431.78	-0.327
431.99	-0.329
432.19	-0.331
432.40	-0.333
432.60	-0.335
432.80	-0.338
433.01	-0.340
433.21	-0.341
433.42	-0.343
433.62	-0.344
433.83	-0.345
434.03	-0.345
434.23	-0.346
434.44	-0.345
434.64	-0.346
434.85	-0.345
435.05	-0.345
435.26	-0.345
435.46	-0.345
435.66	-0.344
435.87	-0.344
436.07	-0.344
436.28	-0.344
436.48	-0.343
436.69	-0.343
436.89	-0.343
437.09	-0.343
437.30	-0.342
437.50	-0.343
437.71	-0.342
437.91	-0.343
438.11	-0.343
438.32	-0.344
438.52	-0.344
438.73	-0.344
438.93	-0.345
439.13	-0.345
439.34	-0.346
439.54	-0.346
439.75	-0.346
439.95	-0.346
440.15	-0.346
440.36	-0.346
440.56	-0.346
440.77	-0.347
440.97	-0.347
441.17	-0.347
441.38	-0.346
441.58	-0.346
441.79	-0.346
441.99	-0.346
442.19	-0.346
442.40	-0.346
442.60	-0.345
442.81	-0.345
443.01	-0.345
443.21	-0.345
443.42	-0.345
443.62	-0.345
443.82	-0.345
444.03	-0.344
444.23	-0.344
444.44	-0.345
444.64	-0.344
444.84	-0.344
445.05	-0.343
445.25	-0.344
445.45	-0.343
445.66	-0.343
445.86	-0.343
446.06	-0.343
446.27	-0.344
446.47	-0.344
446.68	-0.344
446.88	-0.344
447.08	-0.345
447.29	-0.345
447.49	-0.345
447.69	-0.346
447.90	-0.346
448.10	-0.346
448.30	-0.346
448.51	-0.346
448.71	-0.346
448.91	-0.346
449.12	-0.346
