SpectraSuite Data File
++++++++++++++++++++++++++++++++++++
Date: Mon Jun 15 08:29:52 PDT 2015
User: introlabs
Dark Spectrum Present: Yes
Reference Spectrum Present: Yes
Number of Sampled Component Spectra: 1
Spectrometers: USB4H08886
Integration Time (usec): 44366 (USB4H08886)
Spectra Averaged: 20 (USB4H08886)
Boxcar Smoothing: 5 (USB4H08886)
Correct for Electrical Dark: Yes (USB4H08886)
Strobe/Lamp Enabled: No (USB4H08886)
Correct for Detector Non-linearity: Yes (USB4H08886)
Correct for Stray Light: Yes (USB4H08886)
Number of Pixels in Processed Spectrum: 3648
>>>>>Begin Processed Spectral Data<<<<<
178.14	-0.119
178.36	-0.119
178.57	-0.119
178.79	0.799
179.01	-1.090
179.22	-0.182
179.44	-0.458
179.65	-0.000
179.87	-0.000
180.08	0.673
180.30	0.232
180.52	-0.037
180.73	0.073
180.95	0.035
181.16	0.065
181.38	0.045
181.59	0.026
181.81	0.026
182.03	0.025
182.24	0.028
182.46	0.025
182.67	0.027
182.89	0.032
183.10	0.034
183.32	0.026
183.54	0.018
183.75	0.024
183.97	0.029
184.18	0.019
184.40	0.007
184.61	0.009
184.83	0.008
185.04	0.010
185.26	0.007
185.48	0.007
185.69	0.010
185.91	0.003
186.12	0.002
186.34	0.006
186.55	0.006
186.77	0.005
186.98	-0.002
187.20	-0.006
187.42	-0.004
187.63	-0.006
187.85	-0.009
188.06	-0.005
188.28	0.004
188.49	0.008
188.71	0.000
188.92	0.008
189.14	0.012
189.36	0.024
189.57	0.027
189.79	0.024
190.00	0.028
190.22	0.026
190.43	0.027
190.65	0.014
190.86	0.019
191.08	0.021
191.29	0.017
191.51	0.018
191.72	0.008
191.94	0.009
192.16	0.011
192.37	0.007
192.59	0.013
192.80	0.005
193.02	0.016
193.23	0.007
193.45	-0.002
193.66	-0.003
193.88	-0.004
194.09	-0.001
194.31	-0.004
194.52	-0.010
194.74	-0.009
194.95	-0.014
195.17	-0.009
195.38	-0.015
195.60	-0.021
195.81	-0.011
196.03	-0.014
196.25	-0.007
196.46	-0.008
196.68	-0.005
196.89	-0.002
197.11	0.006
197.32	0.004
197.54	-0.004
197.75	0.007
197.97	0.008
198.18	0.004
198.40	0.013
198.61	0.004
198.83	-0.004
199.04	-0.005
199.26	-0.007
199.47	-0.021
199.69	-0.011
199.90	0.005
200.12	0.002
200.33	0.013
200.55	0.013
200.76	0.007
200.98	0.009
201.19	0.013
201.41	0.007
201.62	0.011
201.84	0.017
202.05	0.020
202.27	0.006
202.48	0.000
202.70	-0.006
202.91	-0.008
203.13	-0.013
203.34	-0.016
203.56	-0.014
203.77	-0.000
203.99	-0.004
204.20	-0.011
204.42	-0.017
204.63	-0.005
204.85	-0.003
205.06	-0.000
205.28	0.001
205.49	0.005
205.71	0.016
205.92	0.017
206.14	0.004
206.35	0.012
206.56	0.024
206.78	0.019
206.99	0.015
207.21	0.016
207.42	0.012
207.64	0.017
207.85	0.017
208.07	0.016
208.28	0.017
208.50	0.029
208.71	0.026
208.93	0.021
209.14	0.028
209.36	0.028
209.57	0.032
209.79	0.035
210.00	0.033
210.22	0.039
210.43	0.033
210.64	0.031
210.86	0.026
211.07	0.020
211.29	0.020
211.50	0.016
211.72	0.012
211.93	0.015
212.15	0.017
212.36	0.010
212.58	0.008
212.79	0.007
213.01	0.001
213.22	0.001
213.43	0.004
213.65	0.006
213.86	0.011
214.08	0.017
214.29	0.012
214.51	0.011
214.72	0.012
214.94	0.004
215.15	0.011
215.36	0.016
215.58	0.015
215.79	0.010
216.01	0.009
216.22	0.008
216.44	-0.004
216.65	-0.007
216.87	-0.005
217.08	-0.004
217.29	0.009
217.51	0.002
217.72	0.001
217.94	0.002
218.15	0.005
218.37	0.007
218.58	0.003
218.80	0.016
219.01	0.011
219.22	0.008
219.44	0.014
219.65	0.003
219.87	0.010
220.08	0.007
220.30	0.006
220.51	0.009
220.72	0.008
220.94	0.003
221.15	0.001
221.37	0.004
221.58	0.002
221.79	-0.000
222.01	-0.002
222.22	-0.011
222.44	-0.011
222.65	-0.012
222.87	-0.018
223.08	-0.022
223.29	-0.018
223.51	-0.021
223.72	-0.019
223.94	-0.018
224.15	-0.019
224.36	-0.013
224.58	-0.011
224.79	-0.004
225.01	-0.005
225.22	-0.002
225.44	0.002
225.65	0.004
225.86	0.005
226.08	0.006
226.29	0.006
226.51	0.009
226.72	0.007
226.93	0.010
227.15	0.001
227.36	0.002
227.58	-0.001
227.79	0.001
228.00	-0.001
228.22	-0.007
228.43	-0.010
228.65	-0.010
228.86	-0.014
229.07	-0.013
229.29	-0.014
229.50	-0.012
229.72	-0.011
229.93	-0.010
230.14	-0.013
230.36	-0.013
230.57	-0.012
230.78	-0.014
231.00	-0.017
231.21	-0.018
231.43	-0.020
231.64	-0.020
231.85	-0.020
232.07	-0.022
232.28	-0.021
232.50	-0.024
232.71	-0.025
232.92	-0.023
233.14	-0.022
233.35	-0.019
233.56	-0.019
233.78	-0.020
233.99	-0.022
234.21	-0.021
234.42	-0.021
234.63	-0.021
234.85	-0.021
235.06	-0.021
235.27	-0.021
235.49	-0.018
235.70	-0.021
235.91	-0.021
236.13	-0.020
236.34	-0.020
236.56	-0.021
236.77	-0.020
236.98	-0.020
237.20	-0.019
237.41	-0.019
237.62	-0.018
237.84	-0.020
238.05	-0.019
238.26	-0.020
238.48	-0.020
238.69	-0.018
238.91	-0.017
239.12	-0.017
239.33	-0.016
239.55	-0.015
239.76	-0.015
239.97	-0.014
240.19	-0.013
240.40	-0.013
240.61	-0.012
240.83	-0.012
241.04	-0.012
241.25	-0.013
241.47	-0.013
241.68	-0.011
241.89	-0.012
242.11	-0.011
242.32	-0.010
242.53	-0.011
242.75	-0.010
242.96	-0.009
243.17	-0.008
243.39	-0.007
243.60	-0.007
243.81	-0.007
244.03	-0.007
244.24	-0.007
244.45	-0.006
244.67	-0.006
244.88	-0.004
245.09	-0.004
245.31	-0.003
245.52	-0.003
245.73	-0.004
245.95	-0.003
246.16	-0.002
246.37	-0.002
246.59	-0.002
246.80	-0.002
247.01	-0.001
247.23	-0.002
247.44	-0.002
247.65	-0.002
247.87	-0.001
248.08	-0.001
248.29	-0.000
248.51	0.000
248.72	0.000
248.93	0.000
249.15	0.001
249.36	0.001
249.57	0.001
249.78	0.001
250.00	0.001
250.21	0.001
250.42	0.002
250.64	0.002
250.85	0.002
251.06	0.002
251.28	0.003
251.49	0.003
251.70	0.002
251.92	0.003
252.13	0.003
252.34	0.004
252.55	0.004
252.77	0.004
252.98	0.004
253.19	0.003
253.41	0.004
253.62	0.004
253.83	0.004
254.05	0.004
254.26	0.004
254.47	0.004
254.68	0.003
254.90	0.003
255.11	0.004
255.32	0.004
255.54	0.004
255.75	0.004
255.96	0.005
256.17	0.005
256.39	0.005
256.60	0.005
256.81	0.006
257.03	0.006
257.24	0.006
257.45	0.006
257.66	0.005
257.88	0.006
258.09	0.005
258.30	0.005
258.51	0.005
258.73	0.005
258.94	0.005
259.15	0.005
259.37	0.004
259.58	0.004
259.79	0.004
260.00	0.005
260.22	0.005
260.43	0.005
260.64	0.005
260.85	0.005
261.07	0.004
261.28	0.004
261.49	0.004
261.71	0.004
261.92	0.004
262.13	0.004
262.34	0.004
262.56	0.003
262.77	0.004
262.98	0.003
263.19	0.003
263.41	0.003
263.62	0.003
263.83	0.003
264.04	0.003
264.26	0.003
264.47	0.003
264.68	0.003
264.89	0.003
265.11	0.002
265.32	0.003
265.53	0.003
265.74	0.002
265.96	0.002
266.17	0.002
266.38	0.002
266.59	0.002
266.81	0.002
267.02	0.002
267.23	0.001
267.44	0.001
267.65	0.001
267.87	0.000
268.08	-0.000
268.29	0.000
268.50	0.000
268.72	0.000
268.93	-0.000
269.14	-0.000
269.35	-0.000
269.57	-0.000
269.78	-0.000
269.99	-0.000
270.20	-0.000
270.41	-0.000
270.63	-0.000
270.84	-0.001
271.05	-0.001
271.26	-0.001
271.48	-0.001
271.69	-0.001
271.90	-0.002
272.11	-0.002
272.32	-0.002
272.54	-0.003
272.75	-0.003
272.96	-0.003
273.17	-0.003
273.39	-0.002
273.60	-0.003
273.81	-0.003
274.02	-0.003
274.23	-0.003
274.45	-0.003
274.66	-0.003
274.87	-0.004
275.08	-0.004
275.29	-0.004
275.51	-0.004
275.72	-0.004
275.93	-0.004
276.14	-0.004
276.35	-0.004
276.57	-0.004
276.78	-0.004
276.99	-0.003
277.20	-0.003
277.41	-0.003
277.63	-0.003
277.84	-0.003
278.05	-0.003
278.26	-0.003
278.47	-0.004
278.69	-0.004
278.90	-0.003
279.11	-0.003
279.32	-0.003
279.53	-0.003
279.74	-0.002
279.96	-0.002
280.17	-0.002
280.38	-0.002
280.59	-0.002
280.80	-0.001
281.02	-0.001
281.23	-0.001
281.44	-0.001
281.65	-0.000
281.86	-0.000
282.07	-0.000
282.29	-0.000
282.50	-0.000
282.71	-0.000
282.92	-0.000
283.13	-0.000
283.35	-0.000
283.56	-0.000
283.77	-0.000
283.98	-0.000
284.19	0.000
284.40	0.001
284.62	0.001
284.83	0.001
285.04	0.001
285.25	0.002
285.46	0.002
285.67	0.002
285.88	0.003
286.10	0.003
286.31	0.004
286.52	0.005
286.73	0.005
286.94	0.005
287.15	0.006
287.37	0.006
287.58	0.007
287.79	0.007
288.00	0.008
288.21	0.008
288.42	0.009
288.63	0.009
288.85	0.009
289.06	0.009
289.27	0.010
289.48	0.010
289.69	0.010
289.90	0.011
290.11	0.011
290.33	0.011
290.54	0.012
290.75	0.012
290.96	0.012
291.17	0.012
291.38	0.013
291.59	0.013
291.81	0.013
292.02	0.013
292.23	0.013
292.44	0.013
292.65	0.013
292.86	0.014
293.07	0.014
293.28	0.014
293.50	0.014
293.71	0.014
293.92	0.014
294.13	0.014
294.34	0.015
294.55	0.015
294.76	0.015
294.97	0.015
295.19	0.015
295.40	0.015
295.61	0.015
295.82	0.015
296.03	0.015
296.24	0.015
296.45	0.015
296.66	0.015
296.87	0.015
297.09	0.015
297.30	0.015
297.51	0.015
297.72	0.015
297.93	0.015
298.14	0.015
298.35	0.015
298.56	0.015
298.77	0.015
298.99	0.015
299.20	0.015
299.41	0.015
299.62	0.015
299.83	0.015
300.04	0.016
300.25	0.016
300.46	0.016
300.67	0.016
300.88	0.016
301.10	0.016
301.31	0.016
301.52	0.016
301.73	0.016
301.94	0.016
302.15	0.016
302.36	0.016
302.57	0.016
302.78	0.016
302.99	0.016
303.20	0.016
303.41	0.016
303.63	0.016
303.84	0.016
304.05	0.016
304.26	0.016
304.47	0.016
304.68	0.016
304.89	0.016
305.10	0.016
305.31	0.016
305.52	0.016
305.73	0.016
305.94	0.016
306.15	0.016
306.37	0.016
306.58	0.016
306.79	0.016
307.00	0.017
307.21	0.017
307.42	0.017
307.63	0.017
307.84	0.017
308.05	0.017
308.26	0.017
308.47	0.017
308.68	0.017
308.89	0.017
309.10	0.017
309.31	0.017
309.52	0.017
309.73	0.017
309.95	0.017
310.16	0.017
310.37	0.017
310.58	0.017
310.79	0.016
311.00	0.016
311.21	0.017
311.42	0.017
311.63	0.017
311.84	0.017
312.05	0.017
312.26	0.017
312.47	0.017
312.68	0.017
312.89	0.017
313.10	0.017
313.31	0.017
313.52	0.017
313.73	0.017
313.94	0.017
314.15	0.017
314.36	0.017
314.57	0.017
314.78	0.018
314.99	0.017
315.21	0.018
315.42	0.018
315.63	0.018
315.84	0.018
316.05	0.018
316.26	0.018
316.47	0.018
316.68	0.018
316.89	0.018
317.10	0.018
317.31	0.018
317.52	0.018
317.73	0.018
317.94	0.018
318.15	0.018
318.36	0.018
318.57	0.018
318.78	0.018
318.99	0.018
319.20	0.018
319.41	0.018
319.62	0.018
319.83	0.018
320.04	0.018
320.25	0.018
320.46	0.018
320.67	0.018
320.88	0.018
321.09	0.018
321.30	0.018
321.51	0.018
321.72	0.018
321.93	0.018
322.14	0.018
322.35	0.018
322.56	0.018
322.77	0.018
322.98	0.018
323.19	0.018
323.40	0.018
323.61	0.018
323.82	0.018
324.03	0.018
324.24	0.018
324.45	0.018
324.66	0.018
324.87	0.018
325.08	0.018
325.29	0.018
325.50	0.018
325.71	0.018
325.92	0.018
326.13	0.018
326.34	0.018
326.55	0.018
326.76	0.018
326.97	0.018
327.18	0.018
327.39	0.018
327.60	0.018
327.80	0.018
328.01	0.018
328.22	0.018
328.43	0.018
328.64	0.018
328.85	0.018
329.06	0.018
329.27	0.018
329.48	0.018
329.69	0.017
329.90	0.018
330.11	0.017
330.32	0.018
330.53	0.017
330.74	0.017
330.95	0.017
331.16	0.017
331.37	0.017
331.58	0.017
331.79	0.017
332.00	0.017
332.21	0.017
332.42	0.017
332.63	0.017
332.83	0.017
333.04	0.017
333.25	0.017
333.46	0.017
333.67	0.017
333.88	0.017
334.09	0.017
334.30	0.017
334.51	0.017
334.72	0.016
334.93	0.016
335.14	0.016
335.35	0.016
335.56	0.016
335.77	0.016
335.98	0.016
336.18	0.016
336.39	0.016
336.60	0.016
336.81	0.016
337.02	0.016
337.23	0.016
337.44	0.015
337.65	0.015
337.86	0.015
338.07	0.015
338.28	0.015
338.49	0.015
338.70	0.015
338.91	0.015
339.11	0.015
339.32	0.014
339.53	0.014
339.74	0.014
339.95	0.014
340.16	0.014
340.37	0.014
340.58	0.014
340.79	0.014
341.00	0.014
341.21	0.014
341.41	0.014
341.62	0.013
341.83	0.013
342.04	0.013
342.25	0.013
342.46	0.013
342.67	0.013
342.88	0.013
343.09	0.013
343.30	0.013
343.50	0.013
343.71	0.012
343.92	0.013
344.13	0.012
344.34	0.013
344.55	0.012
344.76	0.012
344.97	0.012
345.18	0.012
345.38	0.012
345.59	0.012
345.80	0.011
346.01	0.012
346.22	0.011
346.43	0.011
346.64	0.011
346.85	0.011
347.06	0.011
347.26	0.011
347.47	0.011
347.68	0.011
347.89	0.011
348.10	0.011
348.31	0.011
348.52	0.011
348.73	0.010
348.93	0.010
349.14	0.010
349.35	0.010
349.56	0.010
349.77	0.010
349.98	0.010
350.19	0.010
350.39	0.010
350.60	0.010
350.81	0.010
351.02	0.010
351.23	0.010
351.44	0.009
351.65	0.010
351.86	0.009
352.06	0.009
352.27	0.009
352.48	0.009
352.69	0.009
352.90	0.009
353.11	0.009
353.31	0.009
353.52	0.009
353.73	0.009
353.94	0.009
354.15	0.009
354.36	0.009
354.57	0.009
354.77	0.009
354.98	0.009
355.19	0.009
355.40	0.009
355.61	0.009
355.82	0.009
356.02	0.009
356.23	0.009
356.44	0.009
356.65	0.009
356.86	0.009
357.07	0.008
357.27	0.008
357.48	0.008
357.69	0.008
357.90	0.008
358.11	0.008
358.32	0.008
358.52	0.008
358.73	0.008
358.94	0.008
359.15	0.008
359.36	0.008
359.56	0.008
359.77	0.008
359.98	0.008
360.19	0.007
360.40	0.007
360.61	0.007
360.81	0.007
361.02	0.007
361.23	0.007
361.44	0.007
361.65	0.007
361.85	0.007
362.06	0.007
362.27	0.007
362.48	0.007
362.69	0.007
362.89	0.007
363.10	0.007
363.31	0.007
363.52	0.007
363.73	0.007
363.93	0.007
364.14	0.007
364.35	0.007
364.56	0.007
364.77	0.007
364.97	0.007
365.18	0.007
365.39	0.007
365.60	0.007
365.81	0.007
366.01	0.007
366.22	0.006
366.43	0.006
366.64	0.006
366.84	0.006
367.05	0.006
367.26	0.006
367.47	0.006
367.68	0.007
367.88	0.007
368.09	0.007
368.30	0.007
368.51	0.007
368.71	0.007
368.92	0.007
369.13	0.007
369.34	0.007
369.55	0.006
369.75	0.006
369.96	0.006
370.17	0.006
370.38	0.006
370.58	0.006
370.79	0.006
371.00	0.006
371.21	0.006
371.41	0.006
371.62	0.006
371.83	0.006
372.04	0.006
372.24	0.006
372.45	0.006
372.66	0.006
372.87	0.006
373.07	0.006
373.28	0.006
373.49	0.006
373.70	0.006
373.90	0.006
374.11	0.006
374.32	0.006
374.53	0.005
374.73	0.006
374.94	0.006
375.15	0.005
375.36	0.006
375.56	0.006
375.77	0.005
375.98	0.006
376.19	0.005
376.39	0.005
376.60	0.005
376.81	0.005
377.02	0.005
377.22	0.005
377.43	0.005
377.64	0.005
377.84	0.005
378.05	0.005
378.26	0.005
378.47	0.005
378.67	0.005
378.88	0.005
379.09	0.005
379.30	0.005
379.50	0.005
379.71	0.005
379.92	0.005
380.12	0.005
380.33	0.005
380.54	0.005
380.75	0.005
380.95	0.005
381.16	0.005
381.37	0.005
381.57	0.005
381.78	0.005
381.99	0.005
382.20	0.005
382.40	0.005
382.61	0.005
382.82	0.005
383.02	0.005
383.23	0.005
383.44	0.005
383.64	0.005
383.85	0.005
384.06	0.005
384.27	0.005
384.47	0.005
384.68	0.005
384.89	0.005
385.09	0.005
385.30	0.005
385.51	0.005
385.71	0.005
385.92	0.005
386.13	0.005
386.33	0.005
386.54	0.004
386.75	0.005
386.95	0.005
387.16	0.004
387.37	0.004
387.58	0.004
387.78	0.005
387.99	0.004
388.20	0.004
388.40	0.004
388.61	0.004
388.82	0.004
389.02	0.004
389.23	0.004
389.44	0.004
389.64	0.004
389.85	0.004
390.06	0.004
390.26	0.004
390.47	0.004
390.68	0.004
390.88	0.004
391.09	0.004
391.30	0.004
391.50	0.004
391.71	0.004
391.92	0.004
392.12	0.004
392.33	0.004
392.53	0.004
392.74	0.004
392.95	0.004
393.15	0.004
393.36	0.004
393.57	0.004
393.77	0.004
393.98	0.004
394.19	0.004
394.39	0.004
394.60	0.004
394.81	0.004
395.01	0.004
395.22	0.004
395.43	0.004
395.63	0.004
395.84	0.004
396.04	0.004
396.25	0.004
396.46	0.004
396.66	0.004
396.87	0.004
397.08	0.004
397.28	0.004
397.49	0.004
397.69	0.004
397.90	0.004
398.11	0.004
398.31	0.004
398.52	0.004
398.73	0.004
398.93	0.004
399.14	0.003
399.34	0.003
399.55	0.004
399.76	0.003
399.96	0.004
400.17	0.004
400.37	0.004
400.58	0.004
400.79	0.003
400.99	0.003
401.20	0.003
401.41	0.003
401.61	0.003
401.82	0.003
402.02	0.003
402.23	0.003
402.44	0.003
402.64	0.003
402.85	0.003
403.05	0.003
403.26	0.004
403.47	0.003
403.67	0.003
403.88	0.003
404.08	0.003
404.29	0.003
404.50	0.003
404.70	0.003
404.91	0.003
405.11	0.003
405.32	0.003
405.52	0.003
405.73	0.003
405.94	0.003
406.14	0.003
406.35	0.003
406.55	0.003
406.76	0.003
406.97	0.003
407.17	0.003
407.38	0.003
407.58	0.003
407.79	0.003
407.99	0.003
408.20	0.003
408.41	0.003
408.61	0.003
408.82	0.003
409.02	0.003
409.23	0.003
409.43	0.003
409.64	0.003
409.84	0.003
410.05	0.003
410.26	0.003
410.46	0.003
410.67	0.003
410.87	0.003
411.08	0.003
411.28	0.003
411.49	0.003
411.69	0.003
411.90	0.003
412.11	0.003
412.31	0.003
412.52	0.003
412.72	0.003
412.93	0.003
413.13	0.003
413.34	0.003
413.54	0.003
413.75	0.003
413.95	0.003
414.16	0.003
414.37	0.003
414.57	0.003
414.78	0.003
414.98	0.003
415.19	0.003
415.39	0.003
415.60	0.003
415.80	0.003
416.01	0.002
416.21	0.002
416.42	0.002
416.62	0.002
416.83	0.002
417.03	0.002
417.24	0.002
417.44	0.002
417.65	0.002
417.86	0.002
418.06	0.002
418.27	0.002
418.47	0.002
418.68	0.002
418.88	0.002
419.09	0.002
419.29	0.002
419.50	0.002
419.70	0.002
419.91	0.002
420.11	0.002
420.32	0.002
420.52	0.002
420.73	0.002
420.93	0.002
421.14	0.002
421.34	0.002
421.55	0.002
421.75	0.002
421.96	0.002
422.16	0.002
422.37	0.002
422.57	0.002
422.78	0.002
422.98	0.002
423.19	0.002
423.39	0.002
423.60	0.002
423.80	0.002
424.01	0.002
424.21	0.002
424.42	0.002
424.62	0.002
424.83	0.002
425.03	0.002
425.23	0.002
425.44	0.002
425.64	0.002
425.85	0.002
426.05	0.002
426.26	0.002
426.46	0.002
426.67	0.002
426.87	0.002
427.08	0.002
427.28	0.002
427.49	0.002
427.69	0.002
427.90	0.002
428.10	0.002
428.31	0.002
428.51	0.002
428.71	0.002
428.92	0.002
429.12	0.002
429.33	0.002
429.53	0.002
429.74	0.002
429.94	0.002
430.15	0.002
430.35	0.002
430.56	0.002
430.76	0.002
430.96	0.002
431.17	0.002
431.37	0.002
431.58	0.002
431.78	0.002
431.99	0.002
432.19	0.002
432.40	0.002
432.60	0.002
432.80	0.002
433.01	0.002
433.21	0.002
433.42	0.002
433.62	0.002
433.83	0.002
434.03	0.002
434.23	0.002
434.44	0.002
434.64	0.002
434.85	0.002
435.05	0.002
435.26	0.002
435.46	0.002
435.66	0.002
435.87	0.002
436.07	0.002
436.28	0.002
436.48	0.002
436.69	0.002
436.89	0.001
437.09	0.001
437.30	0.001
437.50	0.001
437.71	0.002
437.91	0.002
438.11	0.002
438.32	0.002
438.52	0.002
438.73	0.002
438.93	0.002
439.13	0.002
439.34	0.002
439.54	0.002
439.75	0.002
439.95	0.002
440.15	0.001
440.36	0.002
440.56	0.002
440.77	0.002
440.97	0.002
441.17	0.002
441.38	0.002
441.58	0.001
441.79	0.001
441.99	0.001
442.19	0.001
442.40	0.002
442.60	0.001
442.81	0.001
443.01	0.001
443.21	0.001
443.42	0.001
443.62	0.001
443.82	0.001
444.03	0.001
444.23	0.001
444.44	0.002
444.64	0.001
444.84	0.002
445.05	0.002
445.25	0.002
445.45	0.002
445.66	0.002
445.86	0.002
446.06	0.002
446.27	0.002
446.47	0.002
446.68	0.001
446.88	0.001
447.08	0.001
447.29	0.001
447.49	0.001
447.69	0.001
447.90	0.001
448.10	0.001
448.30	0.001
448.51	0.001
448.71	0.001
448.91	0.001
449.12	0.001
449.32	0.001
449.52	0.001
449.73	0.002
449.93	0.002
450.14	0.001
450.34	0.001
450.54	0.001
450.75	0.001
450.95	0.001
451.15	0.001
451.36	0.001
451.56	0.001
451.76	0.001
451.97	0.001
452.17	0.001
452.37	0.001
452.58	0.001
452.78	0.001
452.98	0.001
453.19	0.001
453.39	0.001
453.59	0.001
453.79	0.001
454.00	0.001
454.20	0.001
454.40	0.001
454.61	0.001
454.81	0.001
455.01	0.001
455.22	0.001
455.42	0.001
455.62	0.001
455.83	0.001
456.03	0.001
456.23	0.001
456.44	0.001
456.64	0.001
456.84	0.001
457.04	0.001
457.25	0.001
457.45	0.001
457.65	0.001
457.86	0.001
458.06	0.001
458.26	0.001
458.47	0.001
458.67	0.001
458.87	0.001
459.07	0.001
459.28	0.001
459.48	0.001
459.68	0.001
459.89	0.001
460.09	0.001
460.29	0.001
460.49	0.001
460.70	0.001
460.90	0.001
461.10	0.001
461.31	0.001
461.51	0.001
461.71	0.002
461.91	0.001
462.12	0.001
462.32	0.001
462.52	0.001
462.72	0.001
462.93	0.001
463.13	0.001
463.33	0.001
463.53	0.001
463.74	0.001
463.94	0.001
464.14	0.001
464.35	0.001
