SpectraSuite Data File
++++++++++++++++++++++++++++++++++++
Date: Mon Jun 15 09:22:24 PDT 2015
User: introlabs
Dark Spectrum Present: Yes
Reference Spectrum Present: Yes
Number of Sampled Component Spectra: 1
Spectrometers: USB4H08886
Integration Time (usec): 44366 (USB4H08886)
Spectra Averaged: 20 (USB4H08886)
Boxcar Smoothing: 5 (USB4H08886)
Correct for Electrical Dark: Yes (USB4H08886)
Strobe/Lamp Enabled: No (USB4H08886)
Correct for Detector Non-linearity: Yes (USB4H08886)
Correct for Stray Light: Yes (USB4H08886)
Number of Pixels in Processed Spectrum: 3648
>>>>>Begin Processed Spectral Data<<<<<
178.14	-0.000
178.36	-0.000
178.57	-0.000
178.79	0.101
179.01	-1.071
179.22	-0.034
179.44	-0.507
179.65	-0.000
179.87	-0.000
180.08	-0.000
180.30	-0.000
180.52	-0.000
180.73	0.383
180.95	0.072
181.16	0.037
181.38	-0.020
181.59	-0.008
181.81	-0.025
182.03	0.010
182.24	0.011
182.46	0.016
182.67	0.014
182.89	0.014
183.10	0.019
183.32	0.016
183.54	0.010
183.75	0.027
183.97	0.025
184.18	0.025
184.40	0.009
184.61	0.007
184.83	0.006
185.04	-0.000
185.26	0.004
185.48	0.002
185.69	-0.000
185.91	-0.002
186.12	-0.006
186.34	0.000
186.55	-0.006
186.77	-0.002
186.98	-0.003
187.20	-0.013
187.42	-0.008
187.63	-0.009
187.85	-0.005
188.06	-0.002
188.28	0.002
188.49	0.008
188.71	0.002
188.92	0.005
189.14	-0.011
189.36	-0.005
189.57	0.005
189.79	-0.001
190.00	-0.004
190.22	-0.001
190.43	0.005
190.65	-0.000
190.86	0.004
191.08	0.011
191.29	0.009
191.51	0.020
191.72	0.013
191.94	0.011
192.16	0.017
192.37	0.016
192.59	0.016
192.80	0.009
193.02	0.015
193.23	0.012
193.45	-0.001
193.66	0.006
193.88	0.008
194.09	0.003
194.31	0.000
194.52	0.001
194.74	0.003
194.95	-0.005
195.17	0.000
195.38	-0.005
195.60	-0.012
195.81	-0.006
196.03	-0.013
196.25	-0.008
196.46	-0.005
196.68	-0.010
196.89	-0.011
197.11	-0.012
197.32	-0.014
197.54	-0.022
197.75	-0.014
197.97	-0.013
198.18	-0.015
198.40	-0.014
198.61	-0.022
198.83	-0.022
199.04	-0.013
199.26	-0.021
199.47	-0.023
199.69	-0.018
199.90	-0.001
200.12	-0.002
200.33	-0.005
200.55	-0.002
200.76	-0.004
200.98	-0.001
201.19	-0.002
201.41	-0.011
201.62	0.004
201.84	0.007
202.05	0.011
202.27	0.004
202.48	0.003
202.70	0.004
202.91	0.002
203.13	-0.004
203.34	-0.014
203.56	-0.014
203.77	-0.007
203.99	-0.021
204.20	-0.029
204.42	-0.031
204.63	-0.030
204.85	-0.031
205.06	-0.034
205.28	-0.027
205.49	-0.016
205.71	0.000
205.92	0.001
206.14	-0.001
206.35	0.006
206.56	0.017
206.78	0.010
206.99	0.015
207.21	0.021
207.42	0.023
207.64	0.020
207.85	0.018
208.07	0.013
208.28	0.015
208.50	0.020
208.71	0.021
208.93	0.015
209.14	0.021
209.36	0.011
209.57	0.004
209.79	0.008
210.00	0.011
210.22	0.015
210.43	0.007
210.64	0.008
210.86	-0.002
211.07	-0.010
211.29	-0.011
211.50	-0.010
211.72	-0.012
211.93	-0.013
212.15	-0.012
212.36	-0.020
212.58	-0.025
212.79	-0.021
213.01	-0.025
213.22	-0.020
213.43	-0.020
213.65	-0.019
213.86	-0.021
214.08	-0.014
214.29	-0.014
214.51	-0.018
214.72	-0.017
214.94	-0.016
215.15	-0.012
215.36	-0.014
215.58	-0.015
215.79	-0.015
216.01	-0.007
216.22	-0.007
216.44	-0.014
216.65	-0.017
216.87	-0.012
217.08	-0.010
217.29	-0.004
217.51	-0.007
217.72	-0.005
217.94	-0.003
218.15	-0.003
218.37	-0.012
218.58	-0.016
218.80	-0.009
219.01	-0.008
219.22	-0.014
219.44	-0.009
219.65	-0.013
219.87	-0.011
220.08	-0.013
220.30	-0.019
220.51	-0.018
220.72	-0.016
220.94	-0.019
221.15	-0.027
221.37	-0.031
221.58	-0.029
221.79	-0.030
222.01	-0.038
222.22	-0.045
222.44	-0.044
222.65	-0.041
222.87	-0.040
223.08	-0.043
223.29	-0.039
223.51	-0.036
223.72	-0.034
223.94	-0.041
224.15	-0.045
224.36	-0.039
224.58	-0.037
224.79	-0.036
225.01	-0.042
225.22	-0.041
225.44	-0.039
225.65	-0.040
225.86	-0.040
226.08	-0.037
226.29	-0.034
226.51	-0.033
226.72	-0.031
226.93	-0.030
227.15	-0.038
227.36	-0.036
227.58	-0.040
227.79	-0.039
228.00	-0.037
228.22	-0.041
228.43	-0.044
228.65	-0.046
228.86	-0.047
229.07	-0.052
229.29	-0.055
229.50	-0.051
229.72	-0.052
229.93	-0.055
230.14	-0.057
230.36	-0.062
230.57	-0.063
230.78	-0.065
231.00	-0.068
231.21	-0.072
231.43	-0.069
231.64	-0.070
231.85	-0.068
232.07	-0.068
232.28	-0.067
232.50	-0.069
232.71	-0.072
232.92	-0.072
233.14	-0.074
233.35	-0.071
233.56	-0.072
233.78	-0.075
233.99	-0.077
234.21	-0.078
234.42	-0.079
234.63	-0.081
234.85	-0.080
235.06	-0.081
235.27	-0.081
235.49	-0.079
235.70	-0.081
235.91	-0.081
236.13	-0.080
236.34	-0.082
236.56	-0.083
236.77	-0.083
236.98	-0.082
237.20	-0.083
237.41	-0.082
237.62	-0.081
237.84	-0.082
238.05	-0.081
238.26	-0.082
238.48	-0.082
238.69	-0.079
238.91	-0.079
239.12	-0.079
239.33	-0.079
239.55	-0.077
239.76	-0.077
239.97	-0.076
240.19	-0.075
240.40	-0.074
240.61	-0.074
240.83	-0.074
241.04	-0.074
241.25	-0.073
241.47	-0.072
241.68	-0.071
241.89	-0.070
242.11	-0.069
242.32	-0.069
242.53	-0.068
242.75	-0.067
242.96	-0.066
243.17	-0.064
243.39	-0.063
243.60	-0.063
243.81	-0.063
244.03	-0.062
244.24	-0.060
244.45	-0.059
244.67	-0.058
244.88	-0.057
245.09	-0.057
245.31	-0.056
245.52	-0.056
245.73	-0.055
245.95	-0.054
246.16	-0.054
246.37	-0.053
246.59	-0.053
246.80	-0.052
247.01	-0.052
247.23	-0.052
247.44	-0.052
247.65	-0.051
247.87	-0.051
248.08	-0.051
248.29	-0.050
248.51	-0.050
248.72	-0.049
248.93	-0.049
249.15	-0.049
249.36	-0.049
249.57	-0.049
249.78	-0.048
250.00	-0.048
250.21	-0.048
250.42	-0.047
250.64	-0.047
250.85	-0.046
251.06	-0.046
251.28	-0.046
251.49	-0.046
251.70	-0.045
251.92	-0.045
252.13	-0.044
252.34	-0.043
252.55	-0.043
252.77	-0.043
252.98	-0.043
253.19	-0.043
253.41	-0.043
253.62	-0.042
253.83	-0.042
254.05	-0.042
254.26	-0.042
254.47	-0.042
254.68	-0.042
254.90	-0.042
255.11	-0.041
255.32	-0.041
255.54	-0.040
255.75	-0.040
255.96	-0.040
256.17	-0.040
256.39	-0.040
256.60	-0.040
256.81	-0.039
257.03	-0.039
257.24	-0.039
257.45	-0.039
257.66	-0.039
257.88	-0.039
258.09	-0.039
258.30	-0.039
258.51	-0.040
258.73	-0.040
258.94	-0.040
259.15	-0.039
259.37	-0.040
259.58	-0.040
259.79	-0.040
260.00	-0.039
260.22	-0.039
260.43	-0.039
260.64	-0.039
260.85	-0.039
261.07	-0.039
261.28	-0.039
261.49	-0.039
261.71	-0.039
261.92	-0.039
262.13	-0.039
262.34	-0.039
262.56	-0.039
262.77	-0.039
262.98	-0.040
263.19	-0.040
263.41	-0.040
263.62	-0.040
263.83	-0.041
264.04	-0.041
264.26	-0.041
264.47	-0.041
264.68	-0.042
264.89	-0.041
265.11	-0.042
265.32	-0.042
265.53	-0.041
265.74	-0.041
265.96	-0.042
266.17	-0.042
266.38	-0.042
266.59	-0.042
266.81	-0.042
267.02	-0.042
267.23	-0.043
267.44	-0.044
267.65	-0.044
267.87	-0.045
268.08	-0.045
268.29	-0.045
268.50	-0.045
268.72	-0.045
268.93	-0.045
269.14	-0.045
269.35	-0.045
269.57	-0.045
269.78	-0.045
269.99	-0.045
270.20	-0.045
270.41	-0.045
270.63	-0.045
270.84	-0.046
271.05	-0.047
271.26	-0.047
271.48	-0.047
271.69	-0.047
271.90	-0.048
272.11	-0.048
272.32	-0.048
272.54	-0.048
272.75	-0.048
272.96	-0.049
273.17	-0.049
273.39	-0.049
273.60	-0.049
273.81	-0.049
274.02	-0.049
274.23	-0.049
274.45	-0.049
274.66	-0.049
274.87	-0.049
275.08	-0.049
275.29	-0.049
275.51	-0.049
275.72	-0.049
275.93	-0.049
276.14	-0.049
276.35	-0.049
276.57	-0.049
276.78	-0.049
276.99	-0.049
277.20	-0.048
277.41	-0.049
277.63	-0.049
277.84	-0.048
278.05	-0.048
278.26	-0.048
278.47	-0.048
278.69	-0.048
278.90	-0.047
279.11	-0.047
279.32	-0.047
279.53	-0.046
279.74	-0.046
279.96	-0.046
280.17	-0.045
280.38	-0.045
280.59	-0.045
280.80	-0.045
281.02	-0.045
281.23	-0.045
281.44	-0.044
281.65	-0.044
281.86	-0.044
282.07	-0.044
282.29	-0.044
282.50	-0.044
282.71	-0.044
282.92	-0.044
283.13	-0.043
283.35	-0.043
283.56	-0.043
283.77	-0.043
283.98	-0.042
284.19	-0.042
284.40	-0.041
284.62	-0.041
284.83	-0.041
285.04	-0.040
285.25	-0.040
285.46	-0.039
285.67	-0.039
285.88	-0.038
286.10	-0.038
286.31	-0.037
286.52	-0.036
286.73	-0.036
286.94	-0.035
287.15	-0.034
287.37	-0.033
287.58	-0.033
287.79	-0.032
288.00	-0.031
288.21	-0.030
288.42	-0.030
288.63	-0.029
288.85	-0.028
289.06	-0.028
289.27	-0.027
289.48	-0.027
289.69	-0.026
289.90	-0.026
290.11	-0.025
290.33	-0.025
290.54	-0.024
290.75	-0.024
290.96	-0.023
291.17	-0.023
291.38	-0.023
291.59	-0.022
291.81	-0.022
292.02	-0.021
292.23	-0.021
292.44	-0.021
292.65	-0.020
292.86	-0.020
293.07	-0.020
293.28	-0.019
293.50	-0.019
293.71	-0.019
293.92	-0.019
294.13	-0.018
294.34	-0.018
294.55	-0.018
294.76	-0.017
294.97	-0.017
295.19	-0.017
295.40	-0.017
295.61	-0.017
295.82	-0.017
296.03	-0.017
296.24	-0.017
296.45	-0.017
296.66	-0.017
296.87	-0.017
297.09	-0.017
297.30	-0.017
297.51	-0.016
297.72	-0.016
297.93	-0.016
298.14	-0.016
298.35	-0.016
298.56	-0.016
298.77	-0.016
298.99	-0.015
299.20	-0.015
299.41	-0.015
299.62	-0.015
299.83	-0.015
300.04	-0.015
300.25	-0.015
300.46	-0.014
300.67	-0.014
300.88	-0.014
301.10	-0.014
301.31	-0.014
301.52	-0.014
301.73	-0.014
301.94	-0.014
302.15	-0.014
302.36	-0.014
302.57	-0.014
302.78	-0.014
302.99	-0.014
303.20	-0.014
303.41	-0.014
303.63	-0.014
303.84	-0.014
304.05	-0.014
304.26	-0.014
304.47	-0.014
304.68	-0.014
304.89	-0.014
305.10	-0.013
305.31	-0.013
305.52	-0.013
305.73	-0.013
305.94	-0.013
306.15	-0.013
306.37	-0.013
306.58	-0.013
306.79	-0.012
307.00	-0.012
307.21	-0.012
307.42	-0.012
307.63	-0.012
307.84	-0.012
308.05	-0.012
308.26	-0.012
308.47	-0.012
308.68	-0.012
308.89	-0.012
309.10	-0.012
309.31	-0.012
309.52	-0.012
309.73	-0.012
309.95	-0.012
310.16	-0.012
310.37	-0.012
310.58	-0.012
310.79	-0.012
311.00	-0.012
311.21	-0.012
311.42	-0.012
311.63	-0.012
311.84	-0.012
312.05	-0.012
312.26	-0.012
312.47	-0.012
312.68	-0.011
312.89	-0.011
313.10	-0.011
313.31	-0.011
313.52	-0.011
313.73	-0.011
313.94	-0.011
314.15	-0.011
314.36	-0.011
314.57	-0.011
314.78	-0.010
314.99	-0.011
315.21	-0.010
315.42	-0.010
315.63	-0.010
315.84	-0.010
316.05	-0.010
316.26	-0.010
316.47	-0.010
316.68	-0.010
316.89	-0.010
317.10	-0.010
317.31	-0.010
317.52	-0.010
317.73	-0.010
317.94	-0.010
318.15	-0.009
318.36	-0.009
318.57	-0.009
318.78	-0.009
318.99	-0.009
319.20	-0.009
319.41	-0.009
319.62	-0.009
319.83	-0.009
320.04	-0.009
320.25	-0.009
320.46	-0.009
320.67	-0.009
320.88	-0.009
321.09	-0.009
321.30	-0.009
321.51	-0.010
321.72	-0.009
321.93	-0.009
322.14	-0.009
322.35	-0.009
322.56	-0.009
322.77	-0.009
322.98	-0.009
323.19	-0.009
323.40	-0.009
323.61	-0.008
323.82	-0.008
324.03	-0.008
324.24	-0.008
324.45	-0.008
324.66	-0.008
324.87	-0.008
325.08	-0.008
325.29	-0.008
325.50	-0.008
325.71	-0.008
325.92	-0.008
326.13	-0.008
326.34	-0.008
326.55	-0.008
326.76	-0.008
326.97	-0.008
327.18	-0.008
327.39	-0.008
327.60	-0.008
327.80	-0.008
328.01	-0.008
328.22	-0.008
328.43	-0.008
328.64	-0.008
328.85	-0.008
329.06	-0.008
329.27	-0.008
329.48	-0.008
329.69	-0.008
329.90	-0.008
330.11	-0.008
330.32	-0.008
330.53	-0.008
330.74	-0.008
330.95	-0.008
331.16	-0.008
331.37	-0.008
331.58	-0.008
331.79	-0.008
332.00	-0.008
332.21	-0.008
332.42	-0.008
332.63	-0.008
332.83	-0.008
333.04	-0.008
333.25	-0.008
333.46	-0.008
333.67	-0.008
333.88	-0.008
334.09	-0.008
334.30	-0.008
334.51	-0.008
334.72	-0.008
334.93	-0.008
335.14	-0.008
335.35	-0.008
335.56	-0.008
335.77	-0.008
335.98	-0.008
336.18	-0.008
336.39	-0.008
336.60	-0.008
336.81	-0.008
337.02	-0.008
337.23	-0.008
337.44	-0.008
337.65	-0.008
337.86	-0.008
338.07	-0.008
338.28	-0.008
338.49	-0.008
338.70	-0.008
338.91	-0.008
339.11	-0.008
339.32	-0.008
339.53	-0.008
339.74	-0.008
339.95	-0.009
340.16	-0.008
340.37	-0.009
340.58	-0.009
340.79	-0.009
341.00	-0.009
341.21	-0.009
341.41	-0.009
341.62	-0.009
341.83	-0.009
342.04	-0.009
342.25	-0.009
342.46	-0.009
342.67	-0.009
342.88	-0.009
343.09	-0.009
343.30	-0.009
343.50	-0.009
343.71	-0.009
343.92	-0.009
344.13	-0.009
344.34	-0.009
344.55	-0.009
344.76	-0.009
344.97	-0.009
345.18	-0.009
345.38	-0.009
345.59	-0.009
345.80	-0.009
346.01	-0.009
346.22	-0.009
346.43	-0.009
346.64	-0.009
346.85	-0.009
347.06	-0.009
347.26	-0.009
347.47	-0.009
347.68	-0.009
347.89	-0.009
348.10	-0.009
348.31	-0.009
348.52	-0.009
348.73	-0.009
348.93	-0.009
349.14	-0.009
349.35	-0.010
349.56	-0.010
349.77	-0.010
349.98	-0.010
350.19	-0.010
350.39	-0.010
350.60	-0.010
350.81	-0.010
351.02	-0.010
351.23	-0.010
351.44	-0.010
351.65	-0.009
351.86	-0.009
352.06	-0.009
352.27	-0.009
352.48	-0.009
352.69	-0.009
352.90	-0.010
353.11	-0.010
353.31	-0.009
353.52	-0.009
353.73	-0.009
353.94	-0.009
354.15	-0.009
354.36	-0.010
354.57	-0.009
354.77	-0.009
354.98	-0.009
355.19	-0.009
355.40	-0.009
355.61	-0.009
355.82	-0.009
356.02	-0.009
356.23	-0.009
356.44	-0.009
356.65	-0.009
356.86	-0.009
357.07	-0.009
357.27	-0.009
357.48	-0.009
357.69	-0.009
357.90	-0.009
358.11	-0.009
358.32	-0.009
358.52	-0.009
358.73	-0.009
358.94	-0.009
359.15	-0.009
359.36	-0.009
359.56	-0.009
359.77	-0.009
359.98	-0.009
360.19	-0.009
360.40	-0.009
360.61	-0.009
360.81	-0.009
361.02	-0.009
361.23	-0.009
361.44	-0.009
361.65	-0.009
361.85	-0.009
362.06	-0.009
362.27	-0.009
362.48	-0.009
362.69	-0.009
362.89	-0.009
363.10	-0.009
363.31	-0.009
363.52	-0.009
363.73	-0.009
363.93	-0.009
364.14	-0.009
364.35	-0.009
364.56	-0.009
364.77	-0.009
364.97	-0.009
365.18	-0.009
365.39	-0.009
365.60	-0.009
365.81	-0.009
366.01	-0.009
366.22	-0.009
366.43	-0.009
366.64	-0.009
366.84	-0.009
367.05	-0.009
367.26	-0.009
367.47	-0.009
367.68	-0.009
367.88	-0.009
368.09	-0.009
368.30	-0.009
368.51	-0.008
368.71	-0.008
368.92	-0.008
369.13	-0.008
369.34	-0.008
369.55	-0.008
369.75	-0.008
369.96	-0.008
370.17	-0.008
370.38	-0.008
370.58	-0.008
370.79	-0.008
371.00	-0.009
371.21	-0.008
371.41	-0.008
371.62	-0.008
371.83	-0.008
372.04	-0.008
372.24	-0.008
372.45	-0.009
372.66	-0.008
372.87	-0.008
373.07	-0.008
373.28	-0.008
373.49	-0.008
373.70	-0.008
373.90	-0.008
374.11	-0.008
374.32	-0.008
374.53	-0.009
374.73	-0.009
374.94	-0.009
375.15	-0.008
375.36	-0.009
375.56	-0.008
375.77	-0.009
375.98	-0.009
376.19	-0.009
376.39	-0.009
376.60	-0.009
376.81	-0.009
377.02	-0.009
377.22	-0.008
377.43	-0.009
377.64	-0.009
377.84	-0.009
378.05	-0.009
378.26	-0.009
378.47	-0.009
378.67	-0.008
378.88	-0.008
379.09	-0.008
379.30	-0.009
379.50	-0.009
379.71	-0.009
379.92	-0.009
380.12	-0.009
380.33	-0.009
380.54	-0.008
380.75	-0.008
380.95	-0.008
381.16	-0.008
381.37	-0.008
381.57	-0.008
381.78	-0.009
381.99	-0.008
382.20	-0.008
382.40	-0.008
382.61	-0.008
382.82	-0.008
383.02	-0.008
383.23	-0.008
383.44	-0.008
383.64	-0.008
383.85	-0.008
384.06	-0.008
384.27	-0.008
384.47	-0.008
384.68	-0.008
384.89	-0.008
385.09	-0.008
385.30	-0.008
385.51	-0.008
385.71	-0.008
385.92	-0.008
386.13	-0.008
386.33	-0.008
386.54	-0.008
386.75	-0.008
386.95	-0.008
387.16	-0.008
387.37	-0.008
387.58	-0.008
387.78	-0.008
387.99	-0.008
388.20	-0.008
388.40	-0.008
388.61	-0.008
388.82	-0.008
389.02	-0.008
389.23	-0.008
389.44	-0.008
389.64	-0.008
389.85	-0.008
390.06	-0.008
390.26	-0.008
390.47	-0.008
390.68	-0.008
390.88	-0.008
391.09	-0.008
391.30	-0.008
391.50	-0.008
391.71	-0.009
391.92	-0.009
392.12	-0.009
392.33	-0.008
392.53	-0.008
392.74	-0.008
392.95	-0.008
393.15	-0.008
393.36	-0.008
393.57	-0.008
393.77	-0.008
393.98	-0.008
394.19	-0.008
394.39	-0.008
394.60	-0.008
394.81	-0.008
395.01	-0.008
395.22	-0.008
395.43	-0.008
395.63	-0.008
395.84	-0.008
396.04	-0.008
396.25	-0.008
396.46	-0.008
396.66	-0.008
396.87	-0.008
397.08	-0.008
397.28	-0.008
397.49	-0.008
397.69	-0.008
397.90	-0.008
398.11	-0.008
398.31	-0.008
398.52	-0.008
398.73	-0.008
398.93	-0.008
399.14	-0.008
399.34	-0.008
399.55	-0.008
399.76	-0.008
399.96	-0.008
400.17	-0.008
400.37	-0.008
400.58	-0.008
400.79	-0.008
400.99	-0.008
401.20	-0.008
401.41	-0.008
401.61	-0.008
401.82	-0.008
402.02	-0.008
402.23	-0.008
402.44	-0.008
402.64	-0.008
402.85	-0.008
403.05	-0.008
403.26	-0.008
403.47	-0.008
403.67	-0.008
403.88	-0.008
404.08	-0.008
404.29	-0.008
404.50	-0.008
404.70	-0.008
404.91	-0.008
405.11	-0.008
405.32	-0.008
405.52	-0.008
405.73	-0.008
405.94	-0.008
406.14	-0.009
406.35	-0.009
406.55	-0.009
406.76	-0.009
406.97	-0.009
407.17	-0.009
407.38	-0.008
407.58	-0.008
407.79	-0.008
407.99	-0.008
408.20	-0.008
408.41	-0.008
408.61	-0.008
408.82	-0.008
409.02	-0.008
409.23	-0.008
409.43	-0.008
409.64	-0.008
409.84	-0.008
410.05	-0.008
410.26	-0.008
410.46	-0.008
410.67	-0.008
410.87	-0.008
411.08	-0.008
411.28	-0.008
411.49	-0.008
411.69	-0.008
411.90	-0.008
412.11	-0.008
412.31	-0.008
412.52	-0.008
412.72	-0.008
412.93	-0.008
413.13	-0.008
413.34	-0.008
413.54	-0.008
413.75	-0.008
413.95	-0.008
414.16	-0.008
414.37	-0.008
414.57	-0.008
414.78	-0.008
414.98	-0.008
415.19	-0.008
415.39	-0.008
415.60	-0.008
415.80	-0.008
416.01	-0.008
416.21	-0.008
416.42	-0.008
416.62	-0.008
416.83	-0.008
417.03	-0.009
417.24	-0.009
417.44	-0.008
417.65	-0.009
417.86	-0.009
418.06	-0.009
418.27	-0.009
418.47	-0.009
418.68	-0.009
418.88	-0.009
419.09	-0.009
419.29	-0.009
419.50	-0.009
419.70	-0.009
419.91	-0.009
420.11	-0.009
420.32	-0.009
420.52	-0.009
420.73	-0.009
420.93	-0.009
421.14	-0.009
421.34	-0.009
421.55	-0.009
421.75	-0.008
421.96	-0.009
422.16	-0.009
422.37	-0.009
422.57	-0.009
422.78	-0.008
422.98	-0.008
423.19	-0.008
423.39	-0.008
423.60	-0.008
423.80	-0.008
424.01	-0.008
424.21	-0.008
424.42	-0.008
424.62	-0.007
424.83	-0.008
425.03	-0.008
425.23	-0.008
425.44	-0.008
425.64	-0.008
425.85	-0.008
426.05	-0.008
426.26	-0.008
426.46	-0.008
426.67	-0.008
426.87	-0.009
427.08	-0.009
427.28	-0.009
427.49	-0.009
427.69	-0.009
427.90	-0.009
428.10	-0.009
428.31	-0.009
428.51	-0.009
428.71	-0.009
428.92	-0.009
429.12	-0.009
429.33	-0.009
429.53	-0.009
429.74	-0.008
429.94	-0.008
430.15	-0.008
430.35	-0.008
430.56	-0.008
430.76	-0.008
430.96	-0.008
431.17	-0.008
431.37	-0.008
431.58	-0.007
431.78	-0.007
431.99	-0.007
432.19	-0.007
432.40	-0.007
432.60	-0.007
432.80	-0.007
433.01	-0.007
433.21	-0.007
433.42	-0.008
433.62	-0.008
433.83	-0.008
434.03	-0.008
434.23	-0.008
434.44	-0.008
434.64	-0.008
434.85	-0.008
435.05	-0.008
435.26	-0.008
435.46	-0.008
435.66	-0.008
435.87	-0.008
436.07	-0.008
436.28	-0.008
436.48	-0.008
436.69	-0.008
436.89	-0.008
437.09	-0.008
437.30	-0.008
437.50	-0.008
437.71	-0.008
437.91	-0.008
438.11	-0.008
438.32	-0.008
438.52	-0.008
438.73	-0.008
438.93	-0.008
439.13	-0.008
439.34	-0.008
439.54	-0.008
439.75	-0.008
439.95	-0.008
440.15	-0.008
440.36	-0.008
440.56	-0.008
440.77	-0.008
440.97	-0.008
441.17	-0.008
441.38	-0.008
441.58	-0.008
441.79	-0.008
441.99	-0.008
442.19	-0.008
442.40	-0.008
442.60	-0.008
442.81	-0.008
443.01	-0.008
443.21	-0.008
443.42	-0.008
443.62	-0.008
443.82	-0.008
444.03	-0.008
444.23	-0.008
444.44	-0.008
444.64	-0.008
444.84	-0.008
445.05	-0.008
445.25	-0.008
445.45	-0.008
445.66	-0.008
445.86	-0.008
446.06	-0.008
446.27	-0.008
446.47	-0.008
446.68	-0.008
446.88	-0.008
447.08	-0.008
447.29	-0.008
447.49	-0.008
447.69	-0.008
447.90	-0.008
448.10	-0.008
448.30	-0.008
448.51	-0.008
448.71	-0.008
448.91	-0.008
449.12	-0.008
449.32	-0.008
449.52	-0.007
449.73	-0.008
449.93	-0.007
450.14	-0.007
