SpectraSuite Data File
++++++++++++++++++++++++++++++++++++
Date: Mon Jun 15 05:26:06 PDT 2015
User: introlabs
Dark Spectrum Present: Yes
Reference Spectrum Present: Yes
Number of Sampled Component Spectra: 1
Spectrometers: USB4H08886
Integration Time (usec): 99009 (USB4H08886)
Spectra Averaged: 20 (USB4H08886)
Boxcar Smoothing: 5 (USB4H08886)
Correct for Electrical Dark: Yes (USB4H08886)
Strobe/Lamp Enabled: No (USB4H08886)
Correct for Detector Non-linearity: Yes (USB4H08886)
Correct for Stray Light: Yes (USB4H08886)
Number of Pixels in Processed Spectrum: 3648
>>>>>Begin Processed Spectral Data<<<<<
178.14	-0.000
178.36	-0.000
178.57	-0.000
178.79	-0.729
179.01	0.253
179.22	-0.495
179.44	-0.321
179.65	-0.084
179.87	0.037
180.08	0.184
180.30	0.083
180.52	0.433
180.73	-0.484
180.95	-0.409
181.16	-0.579
181.38	-0.414
181.59	-0.365
181.81	-0.364
182.03	-0.358
182.24	-0.350
182.46	-0.348
182.67	-0.357
182.89	-0.350
183.10	-0.365
183.32	-0.352
183.54	-0.342
183.75	-0.353
183.97	-0.353
184.18	-0.350
184.40	-0.348
184.61	-0.360
184.83	-0.376
185.04	-0.375
185.26	-0.396
185.48	-0.375
185.69	-0.384
185.91	-0.386
186.12	-0.395
186.34	-0.402
186.55	-0.397
186.77	-0.391
186.98	-0.384
187.20	-0.386
187.42	-0.396
187.63	-0.402
187.85	-0.419
188.06	-0.424
188.28	-0.416
188.49	-0.410
188.71	-0.401
188.92	-0.406
189.14	-0.403
189.36	-0.400
189.57	-0.407
189.79	-0.388
190.00	-0.366
190.22	-0.357
190.43	-0.351
190.65	-0.363
190.86	-0.356
191.08	-0.349
191.29	-0.342
191.51	-0.362
191.72	-0.355
191.94	-0.339
192.16	-0.347
192.37	-0.337
192.59	-0.340
192.80	-0.346
193.02	-0.327
193.23	-0.331
193.45	-0.348
193.66	-0.357
193.88	-0.348
194.09	-0.360
194.31	-0.360
194.52	-0.359
194.74	-0.373
194.95	-0.369
195.17	-0.377
195.38	-0.398
195.60	-0.398
195.81	-0.388
196.03	-0.384
196.25	-0.376
196.46	-0.377
196.68	-0.387
196.89	-0.380
197.11	-0.381
197.32	-0.389
197.54	-0.384
197.75	-0.381
197.97	-0.371
198.18	-0.366
198.40	-0.370
198.61	-0.377
198.83	-0.363
199.04	-0.366
199.26	-0.365
199.47	-0.362
199.69	-0.360
199.90	-0.359
200.12	-0.350
200.33	-0.361
200.55	-0.370
200.76	-0.377
200.98	-0.365
201.19	-0.370
201.41	-0.368
201.62	-0.379
201.84	-0.383
202.05	-0.386
202.27	-0.374
202.48	-0.384
202.70	-0.379
202.91	-0.380
203.13	-0.369
203.34	-0.376
203.56	-0.383
203.77	-0.376
203.99	-0.368
204.20	-0.356
204.42	-0.351
204.63	-0.350
204.85	-0.340
205.06	-0.348
205.28	-0.347
205.49	-0.354
205.71	-0.367
205.92	-0.369
206.14	-0.371
206.35	-0.372
206.56	-0.368
206.78	-0.363
206.99	-0.362
207.21	-0.376
207.42	-0.372
207.64	-0.376
207.85	-0.359
208.07	-0.347
208.28	-0.350
208.50	-0.338
208.71	-0.335
208.93	-0.342
209.14	-0.349
209.36	-0.359
209.57	-0.360
209.79	-0.367
210.00	-0.359
210.22	-0.373
210.43	-0.368
210.64	-0.364
210.86	-0.376
211.07	-0.385
211.29	-0.390
211.50	-0.394
211.72	-0.388
211.93	-0.385
212.15	-0.376
212.36	-0.371
212.58	-0.364
212.79	-0.362
213.01	-0.351
213.22	-0.356
213.43	-0.351
213.65	-0.350
213.86	-0.339
214.08	-0.341
214.29	-0.332
214.51	-0.328
214.72	-0.338
214.94	-0.343
215.15	-0.346
215.36	-0.360
215.58	-0.360
215.79	-0.364
216.01	-0.375
216.22	-0.380
216.44	-0.389
216.65	-0.395
216.87	-0.400
217.08	-0.395
217.29	-0.389
217.51	-0.391
217.72	-0.381
217.94	-0.384
218.15	-0.385
218.37	-0.382
218.58	-0.388
218.80	-0.377
219.01	-0.373
219.22	-0.375
219.44	-0.378
219.65	-0.379
219.87	-0.372
220.08	-0.375
220.30	-0.372
220.51	-0.372
220.72	-0.368
220.94	-0.367
221.15	-0.380
221.37	-0.393
221.58	-0.380
221.79	-0.384
222.01	-0.390
222.22	-0.392
222.44	-0.396
222.65	-0.393
222.87	-0.389
223.08	-0.390
223.29	-0.389
223.51	-0.381
223.72	-0.369
223.94	-0.381
224.15	-0.376
224.36	-0.375
224.58	-0.396
224.79	-0.388
225.01	-0.398
225.22	-0.400
225.44	-0.410
225.65	-0.406
225.86	-0.401
226.08	-0.407
226.29	-0.402
226.51	-0.407
226.72	-0.407
226.93	-0.403
227.15	-0.404
227.36	-0.392
227.58	-0.393
227.79	-0.390
228.00	-0.391
228.22	-0.401
228.43	-0.401
228.65	-0.407
228.86	-0.412
229.07	-0.410
229.29	-0.399
229.50	-0.407
229.72	-0.414
229.93	-0.418
230.14	-0.420
230.36	-0.420
230.57	-0.415
230.78	-0.425
231.00	-0.425
231.21	-0.422
231.43	-0.431
231.64	-0.437
231.85	-0.432
232.07	-0.432
232.28	-0.429
232.50	-0.430
232.71	-0.431
232.92	-0.431
233.14	-0.425
233.35	-0.427
233.56	-0.425
233.78	-0.421
233.99	-0.422
234.21	-0.427
234.42	-0.426
234.63	-0.433
234.85	-0.435
235.06	-0.438
235.27	-0.441
235.49	-0.447
235.70	-0.450
235.91	-0.455
236.13	-0.454
236.34	-0.456
236.56	-0.455
236.77	-0.459
236.98	-0.456
237.20	-0.456
237.41	-0.458
237.62	-0.458
237.84	-0.457
238.05	-0.457
238.26	-0.453
238.48	-0.455
238.69	-0.453
238.91	-0.453
239.12	-0.453
239.33	-0.452
239.55	-0.449
239.76	-0.449
239.97	-0.448
240.19	-0.448
240.40	-0.446
240.61	-0.447
240.83	-0.446
241.04	-0.447
241.25	-0.447
241.47	-0.447
241.68	-0.446
241.89	-0.445
242.11	-0.446
242.32	-0.445
242.53	-0.444
242.75	-0.444
242.96	-0.444
243.17	-0.443
243.39	-0.442
243.60	-0.441
243.81	-0.439
244.03	-0.439
244.24	-0.438
244.45	-0.437
244.67	-0.436
244.88	-0.436
245.09	-0.436
245.31	-0.436
245.52	-0.436
245.73	-0.435
245.95	-0.434
246.16	-0.435
246.37	-0.435
246.59	-0.435
246.80	-0.435
247.01	-0.435
247.23	-0.436
247.44	-0.435
247.65	-0.435
247.87	-0.434
248.08	-0.434
248.29	-0.434
248.51	-0.434
248.72	-0.433
248.93	-0.433
249.15	-0.433
249.36	-0.433
249.57	-0.433
249.78	-0.433
250.00	-0.432
250.21	-0.432
250.42	-0.433
250.64	-0.432
250.85	-0.432
251.06	-0.432
251.28	-0.432
251.49	-0.432
251.70	-0.432
251.92	-0.432
252.13	-0.432
252.34	-0.432
252.55	-0.432
252.77	-0.431
252.98	-0.431
253.19	-0.432
253.41	-0.431
253.62	-0.431
253.83	-0.431
254.05	-0.431
254.26	-0.430
254.47	-0.430
254.68	-0.430
254.90	-0.430
255.11	-0.430
255.32	-0.430
255.54	-0.429
255.75	-0.430
255.96	-0.430
256.17	-0.430
256.39	-0.430
256.60	-0.430
256.81	-0.431
257.03	-0.431
257.24	-0.431
257.45	-0.431
257.66	-0.431
257.88	-0.431
258.09	-0.431
258.30	-0.431
258.51	-0.430
258.73	-0.431
258.94	-0.431
259.15	-0.431
259.37	-0.430
259.58	-0.431
259.79	-0.431
260.00	-0.430
260.22	-0.431
260.43	-0.431
260.64	-0.431
260.85	-0.431
261.07	-0.431
261.28	-0.431
261.49	-0.431
261.71	-0.431
261.92	-0.431
262.13	-0.431
262.34	-0.431
262.56	-0.431
262.77	-0.431
262.98	-0.431
263.19	-0.431
263.41	-0.431
263.62	-0.430
263.83	-0.430
264.04	-0.431
264.26	-0.430
264.47	-0.430
264.68	-0.429
264.89	-0.429
265.11	-0.429
265.32	-0.429
265.53	-0.429
265.74	-0.429
265.96	-0.429
266.17	-0.429
266.38	-0.429
266.59	-0.430
266.81	-0.429
267.02	-0.429
267.23	-0.429
267.44	-0.429
267.65	-0.429
267.87	-0.428
268.08	-0.428
268.29	-0.427
268.50	-0.427
268.72	-0.427
268.93	-0.426
269.14	-0.427
269.35	-0.427
269.57	-0.426
269.78	-0.426
269.99	-0.427
270.20	-0.427
270.41	-0.427
270.63	-0.427
270.84	-0.426
271.05	-0.426
271.26	-0.425
271.48	-0.425
271.69	-0.424
271.90	-0.424
272.11	-0.424
272.32	-0.423
272.54	-0.423
272.75	-0.423
272.96	-0.422
273.17	-0.422
273.39	-0.422
273.60	-0.421
273.81	-0.421
274.02	-0.421
274.23	-0.421
274.45	-0.420
274.66	-0.419
274.87	-0.419
275.08	-0.418
275.29	-0.418
275.51	-0.417
275.72	-0.417
275.93	-0.417
276.14	-0.416
276.35	-0.416
276.57	-0.415
276.78	-0.414
276.99	-0.414
277.20	-0.414
277.41	-0.413
277.63	-0.412
277.84	-0.412
278.05	-0.411
278.26	-0.411
278.47	-0.411
278.69	-0.410
278.90	-0.410
279.11	-0.409
279.32	-0.409
279.53	-0.408
279.74	-0.408
279.96	-0.408
280.17	-0.407
280.38	-0.407
280.59	-0.406
280.80	-0.405
281.02	-0.405
281.23	-0.404
281.44	-0.404
281.65	-0.403
281.86	-0.403
282.07	-0.402
282.29	-0.402
282.50	-0.401
282.71	-0.401
282.92	-0.400
283.13	-0.400
283.35	-0.399
283.56	-0.399
283.77	-0.398
283.98	-0.398
284.19	-0.397
284.40	-0.397
284.62	-0.396
284.83	-0.396
285.04	-0.395
285.25	-0.395
285.46	-0.394
285.67	-0.394
285.88	-0.393
286.10	-0.393
286.31	-0.392
286.52	-0.392
286.73	-0.391
286.94	-0.391
287.15	-0.390
287.37	-0.390
287.58	-0.389
287.79	-0.389
288.00	-0.388
288.21	-0.388
288.42	-0.388
288.63	-0.387
288.85	-0.387
289.06	-0.386
289.27	-0.386
289.48	-0.385
289.69	-0.385
289.90	-0.385
290.11	-0.384
290.33	-0.384
290.54	-0.383
290.75	-0.383
290.96	-0.382
291.17	-0.382
291.38	-0.381
291.59	-0.381
291.81	-0.381
292.02	-0.380
292.23	-0.380
292.44	-0.380
292.65	-0.380
292.86	-0.379
293.07	-0.379
293.28	-0.379
293.50	-0.378
293.71	-0.378
293.92	-0.378
294.13	-0.377
294.34	-0.377
294.55	-0.377
294.76	-0.377
294.97	-0.376
295.19	-0.376
295.40	-0.376
295.61	-0.375
295.82	-0.375
296.03	-0.375
296.24	-0.375
296.45	-0.375
296.66	-0.374
296.87	-0.374
297.09	-0.374
297.30	-0.374
297.51	-0.374
297.72	-0.373
297.93	-0.373
298.14	-0.373
298.35	-0.373
298.56	-0.373
298.77	-0.373
298.99	-0.373
299.20	-0.372
299.41	-0.372
299.62	-0.372
299.83	-0.372
300.04	-0.372
300.25	-0.372
300.46	-0.371
300.67	-0.371
300.88	-0.371
301.10	-0.371
301.31	-0.371
301.52	-0.371
301.73	-0.371
301.94	-0.370
302.15	-0.370
302.36	-0.370
302.57	-0.370
302.78	-0.370
302.99	-0.370
303.20	-0.369
303.41	-0.369
303.63	-0.369
303.84	-0.369
304.05	-0.369
304.26	-0.369
304.47	-0.369
304.68	-0.368
304.89	-0.368
305.10	-0.368
305.31	-0.368
305.52	-0.368
305.73	-0.368
305.94	-0.368
306.15	-0.368
306.37	-0.367
306.58	-0.367
306.79	-0.367
307.00	-0.367
307.21	-0.367
307.42	-0.367
307.63	-0.366
307.84	-0.366
308.05	-0.366
308.26	-0.366
308.47	-0.366
308.68	-0.366
308.89	-0.366
309.10	-0.366
309.31	-0.366
309.52	-0.366
309.73	-0.366
309.95	-0.365
310.16	-0.365
310.37	-0.365
310.58	-0.365
310.79	-0.365
311.00	-0.365
311.21	-0.364
311.42	-0.364
311.63	-0.364
311.84	-0.364
312.05	-0.364
312.26	-0.364
312.47	-0.364
312.68	-0.364
312.89	-0.364
313.10	-0.363
313.31	-0.363
313.52	-0.363
313.73	-0.363
313.94	-0.363
314.15	-0.363
314.36	-0.363
314.57	-0.363
314.78	-0.363
314.99	-0.362
315.21	-0.362
315.42	-0.362
315.63	-0.362
315.84	-0.362
316.05	-0.362
316.26	-0.362
316.47	-0.362
316.68	-0.362
316.89	-0.361
317.10	-0.361
317.31	-0.361
317.52	-0.361
317.73	-0.361
317.94	-0.361
318.15	-0.361
318.36	-0.361
318.57	-0.361
318.78	-0.361
318.99	-0.361
319.20	-0.361
319.41	-0.361
319.62	-0.360
319.83	-0.361
320.04	-0.360
320.25	-0.360
320.46	-0.360
320.67	-0.360
320.88	-0.360
321.09	-0.360
321.30	-0.360
321.51	-0.360
321.72	-0.360
321.93	-0.360
322.14	-0.360
322.35	-0.360
322.56	-0.360
322.77	-0.359
322.98	-0.359
323.19	-0.359
323.40	-0.359
323.61	-0.359
323.82	-0.358
324.03	-0.358
324.24	-0.358
324.45	-0.358
324.66	-0.358
324.87	-0.358
325.08	-0.358
325.29	-0.358
325.50	-0.358
325.71	-0.358
325.92	-0.358
326.13	-0.358
326.34	-0.358
326.55	-0.358
326.76	-0.358
326.97	-0.357
327.18	-0.357
327.39	-0.357
327.60	-0.357
327.80	-0.357
328.01	-0.357
328.22	-0.357
328.43	-0.357
328.64	-0.357
328.85	-0.357
329.06	-0.357
329.27	-0.357
329.48	-0.357
329.69	-0.357
329.90	-0.357
330.11	-0.357
330.32	-0.357
330.53	-0.357
330.74	-0.356
330.95	-0.356
331.16	-0.356
331.37	-0.356
331.58	-0.356
331.79	-0.356
332.00	-0.356
332.21	-0.356
332.42	-0.356
332.63	-0.355
332.83	-0.355
333.04	-0.355
333.25	-0.355
333.46	-0.355
333.67	-0.355
333.88	-0.355
334.09	-0.355
334.30	-0.355
334.51	-0.355
334.72	-0.355
334.93	-0.355
335.14	-0.355
335.35	-0.355
335.56	-0.355
335.77	-0.355
335.98	-0.355
336.18	-0.355
336.39	-0.355
336.60	-0.355
336.81	-0.355
337.02	-0.355
337.23	-0.354
337.44	-0.354
337.65	-0.354
337.86	-0.354
338.07	-0.355
338.28	-0.354
338.49	-0.354
338.70	-0.354
338.91	-0.354
339.11	-0.354
339.32	-0.354
339.53	-0.354
339.74	-0.354
339.95	-0.354
340.16	-0.354
340.37	-0.354
340.58	-0.354
340.79	-0.354
341.00	-0.354
341.21	-0.354
341.41	-0.354
341.62	-0.354
341.83	-0.353
342.04	-0.353
342.25	-0.353
342.46	-0.353
342.67	-0.353
342.88	-0.353
343.09	-0.353
343.30	-0.353
343.50	-0.353
343.71	-0.353
343.92	-0.353
344.13	-0.353
344.34	-0.353
344.55	-0.353
344.76	-0.353
344.97	-0.353
345.18	-0.353
345.38	-0.353
345.59	-0.353
345.80	-0.353
346.01	-0.353
346.22	-0.353
346.43	-0.353
346.64	-0.353
346.85	-0.353
347.06	-0.353
347.26	-0.353
347.47	-0.353
347.68	-0.352
347.89	-0.352
348.10	-0.352
348.31	-0.352
348.52	-0.352
348.73	-0.352
348.93	-0.352
349.14	-0.352
349.35	-0.352
349.56	-0.352
349.77	-0.352
349.98	-0.352
350.19	-0.352
350.39	-0.352
350.60	-0.352
350.81	-0.352
351.02	-0.352
351.23	-0.352
351.44	-0.352
351.65	-0.352
351.86	-0.352
352.06	-0.352
352.27	-0.352
352.48	-0.352
352.69	-0.352
352.90	-0.352
353.11	-0.352
353.31	-0.352
353.52	-0.351
353.73	-0.351
353.94	-0.351
354.15	-0.352
354.36	-0.352
354.57	-0.352
354.77	-0.352
354.98	-0.351
355.19	-0.352
355.40	-0.352
355.61	-0.351
355.82	-0.351
356.02	-0.351
356.23	-0.351
356.44	-0.351
356.65	-0.351
356.86	-0.351
357.07	-0.351
357.27	-0.351
357.48	-0.351
357.69	-0.351
357.90	-0.351
358.11	-0.351
358.32	-0.351
358.52	-0.351
358.73	-0.351
358.94	-0.351
359.15	-0.351
359.36	-0.351
359.56	-0.350
359.77	-0.351
359.98	-0.350
360.19	-0.350
360.40	-0.350
360.61	-0.350
360.81	-0.350
361.02	-0.350
361.23	-0.350
361.44	-0.350
361.65	-0.350
361.85	-0.350
362.06	-0.350
362.27	-0.350
362.48	-0.350
362.69	-0.350
362.89	-0.350
363.10	-0.349
363.31	-0.349
363.52	-0.349
363.73	-0.349
363.93	-0.349
364.14	-0.349
364.35	-0.349
364.56	-0.348
364.77	-0.348
364.97	-0.348
365.18	-0.347
365.39	-0.347
365.60	-0.346
365.81	-0.346
366.01	-0.345
366.22	-0.345
366.43	-0.344
366.64	-0.344
366.84	-0.344
367.05	-0.343
367.26	-0.343
367.47	-0.343
367.68	-0.343
367.88	-0.342
368.09	-0.342
368.30	-0.342
368.51	-0.342
368.71	-0.342
368.92	-0.342
369.13	-0.343
369.34	-0.343
369.55	-0.343
369.75	-0.344
369.96	-0.344
370.17	-0.345
370.38	-0.345
370.58	-0.345
370.79	-0.345
371.00	-0.346
371.21	-0.346
371.41	-0.346
371.62	-0.347
371.83	-0.347
372.04	-0.346
372.24	-0.347
372.45	-0.346
372.66	-0.346
372.87	-0.346
373.07	-0.346
373.28	-0.346
373.49	-0.346
373.70	-0.346
373.90	-0.346
374.11	-0.346
374.32	-0.346
374.53	-0.346
374.73	-0.346
374.94	-0.346
375.15	-0.346
375.36	-0.346
375.56	-0.346
375.77	-0.346
375.98	-0.346
376.19	-0.345
376.39	-0.345
376.60	-0.345
376.81	-0.345
377.02	-0.344
377.22	-0.344
377.43	-0.343
377.64	-0.343
377.84	-0.343
378.05	-0.342
378.26	-0.342
378.47	-0.341
378.67	-0.340
378.88	-0.340
379.09	-0.339
379.30	-0.339
379.50	-0.339
379.71	-0.338
379.92	-0.338
380.12	-0.338
380.33	-0.338
380.54	-0.338
380.75	-0.338
380.95	-0.339
381.16	-0.339
381.37	-0.340
381.57	-0.340
381.78	-0.341
381.99	-0.341
382.20	-0.342
382.40	-0.342
382.61	-0.343
382.82	-0.343
383.02	-0.343
383.23	-0.344
383.44	-0.344
383.64	-0.344
383.85	-0.344
384.06	-0.344
384.27	-0.345
384.47	-0.345
384.68	-0.345
384.89	-0.345
385.09	-0.345
385.30	-0.345
385.51	-0.344
385.71	-0.344
385.92	-0.344
386.13	-0.344
386.33	-0.344
386.54	-0.344
386.75	-0.344
386.95	-0.344
387.16	-0.343
387.37	-0.343
387.58	-0.343
387.78	-0.343
387.99	-0.343
388.20	-0.343
388.40	-0.343
388.61	-0.343
388.82	-0.343
389.02	-0.343
389.23	-0.343
389.44	-0.343
389.64	-0.343
389.85	-0.343
390.06	-0.342
390.26	-0.342
390.47	-0.342
390.68	-0.341
390.88	-0.340
391.09	-0.339
391.30	-0.338
391.50	-0.337
391.71	-0.336
391.92	-0.335
392.12	-0.334
392.33	-0.333
392.53	-0.333
392.74	-0.332
392.95	-0.332
393.15	-0.331
393.36	-0.331
393.57	-0.331
393.77	-0.332
393.98	-0.332
394.19	-0.333
394.39	-0.334
394.60	-0.335
394.81	-0.336
395.01	-0.337
395.22	-0.338
395.43	-0.339
395.63	-0.339
395.84	-0.339
396.04	-0.340
396.25	-0.339
396.46	-0.339
396.66	-0.338
396.87	-0.336
397.08	-0.335
397.28	-0.334
397.49	-0.332
397.69	-0.331
397.90	-0.329
398.11	-0.328
398.31	-0.327
398.52	-0.326
398.73	-0.325
398.93	-0.324
399.14	-0.325
399.34	-0.325
399.55	-0.325
399.76	-0.325
399.96	-0.326
400.17	-0.328
400.37	-0.329
400.58	-0.331
400.79	-0.332
400.99	-0.334
401.20	-0.335
401.41	-0.336
401.61	-0.337
401.82	-0.339
402.02	-0.340
402.23	-0.340
402.44	-0.341
402.64	-0.341
402.85	-0.341
403.05	-0.341
403.26	-0.341
403.47	-0.341
403.67	-0.341
403.88	-0.341
404.08	-0.340
404.29	-0.340
404.50	-0.340
404.70	-0.340
404.91	-0.339
405.11	-0.339
405.32	-0.339
405.52	-0.339
405.73	-0.339
405.94	-0.339
406.14	-0.339
406.35	-0.339
406.55	-0.339
406.76	-0.339
406.97	-0.339
407.17	-0.340
407.38	-0.340
407.58	-0.340
407.79	-0.340
407.99	-0.340
408.20	-0.341
408.41	-0.341
408.61	-0.341
408.82	-0.341
409.02	-0.341
409.23	-0.341
409.43	-0.341
409.64	-0.341
409.84	-0.342
410.05	-0.342
410.26	-0.341
410.46	-0.342
410.67	-0.341
410.87	-0.341
411.08	-0.341
411.28	-0.341
411.49	-0.341
411.69	-0.341
411.90	-0.341
412.11	-0.341
412.31	-0.341
412.52	-0.341
412.72	-0.341
412.93	-0.341
413.13	-0.341
413.34	-0.341
413.54	-0.341
413.75	-0.341
413.95	-0.341
414.16	-0.341
414.37	-0.341
414.57	-0.342
414.78	-0.342
414.98	-0.342
415.19	-0.342
415.39	-0.342
415.60	-0.342
415.80	-0.342
416.01	-0.342
416.21	-0.342
416.42	-0.342
416.62	-0.342
416.83	-0.342
417.03	-0.342
417.24	-0.342
417.44	-0.342
417.65	-0.342
417.86	-0.342
418.06	-0.342
418.27	-0.341
418.47	-0.341
418.68	-0.341
418.88	-0.341
419.09	-0.341
419.29	-0.341
419.50	-0.341
419.70	-0.340
419.91	-0.340
420.11	-0.339
420.32	-0.339
420.52	-0.338
420.73	-0.337
420.93	-0.336
421.14	-0.335
421.34	-0.334
421.55	-0.333
421.75	-0.332
421.96	-0.332
422.16	-0.331
422.37	-0.330
422.57	-0.330
422.78	-0.330
422.98	-0.331
423.19	-0.331
423.39	-0.332
423.60	-0.332
423.80	-0.333
424.01	-0.334
424.21	-0.335
424.42	-0.337
424.62	-0.338
424.83	-0.339
425.03	-0.339
425.23	-0.340
425.44	-0.340
425.64	-0.341
425.85	-0.341
426.05	-0.341
426.26	-0.341
426.46	-0.341
426.67	-0.341
426.87	-0.341
427.08	-0.341
427.28	-0.340
427.49	-0.340
427.69	-0.339
427.90	-0.339
428.10	-0.338
428.31	-0.337
428.51	-0.336
428.71	-0.334
428.92	-0.332
429.12	-0.331
429.33	-0.329
429.53	-0.327
429.74	-0.326
429.94	-0.325
430.15	-0.323
430.35	-0.322
430.56	-0.322
430.76	-0.321
430.96	-0.321
431.17	-0.322
431.37	-0.323
431.58	-0.324
431.78	-0.326
431.99	-0.328
432.19	-0.330
432.40	-0.332
432.60	-0.334
432.80	-0.336
433.01	-0.337
433.21	-0.338
433.42	-0.339
433.62	-0.340
433.83	-0.341
434.03	-0.340
434.23	-0.341
434.44	-0.340
434.64	-0.340
434.85	-0.340
435.05	-0.340
435.26	-0.340
435.46	-0.340
435.66	-0.340
435.87	-0.340
436.07	-0.340
436.28	-0.340
436.48	-0.340
436.69	-0.340
436.89	-0.340
437.09	-0.339
437.30	-0.339
437.50	-0.339
437.71	-0.339
437.91	-0.339
438.11	-0.340
438.32	-0.340
438.52	-0.340
438.73	-0.340
438.93	-0.340
439.13	-0.340
439.34	-0.340
439.54	-0.340
439.75	-0.340
439.95	-0.340
440.15	-0.340
440.36	-0.340
440.56	-0.340
440.77	-0.340
440.97	-0.340
441.17	-0.340
441.38	-0.340
441.58	-0.340
441.79	-0.340
441.99	-0.340
442.19	-0.340
442.40	-0.340
442.60	-0.340
442.81	-0.340
443.01	-0.340
443.21	-0.340
443.42	-0.340
443.62	-0.340
443.82	-0.340
444.03	-0.340
444.23	-0.340
444.44	-0.340
444.64	-0.340
444.84	-0.339
445.05	-0.339
445.25	-0.339
445.45	-0.339
445.66	-0.339
445.86	-0.339
446.06	-0.339
446.27	-0.340
446.47	-0.339
446.68	-0.339
446.88	-0.340
447.08	-0.340
447.29	-0.340
447.49	-0.340
447.69	-0.340
447.90	-0.340
448.10	-0.340
448.30	-0.340
448.51	-0.340
448.71	-0.340
448.91	-0.340
449.12	-0.340
