SpectraSuite Data File
++++++++++++++++++++++++++++++++++++
Date: Mon Jun 15 08:34:00 PDT 2015
User: introlabs
Dark Spectrum Present: Yes
Reference Spectrum Present: Yes
Number of Sampled Component Spectra: 1
Spectrometers: USB4H08886
Integration Time (usec): 44366 (USB4H08886)
Spectra Averaged: 20 (USB4H08886)
Boxcar Smoothing: 5 (USB4H08886)
Correct for Electrical Dark: Yes (USB4H08886)
Strobe/Lamp Enabled: No (USB4H08886)
Correct for Detector Non-linearity: Yes (USB4H08886)
Correct for Stray Light: Yes (USB4H08886)
Number of Pixels in Processed Spectrum: 3648
>>>>>Begin Processed Spectral Data<<<<<
178.14	-0.000
178.36	-0.000
178.57	-0.000
178.79	0.336
179.01	-1.052
179.22	-0.000
179.44	-0.000
179.65	-0.142
179.87	0.329
180.08	0.298
180.30	0.305
180.52	0.886
180.73	0.192
180.95	0.094
181.16	0.034
181.38	0.017
181.59	0.020
181.81	0.019
182.03	0.048
182.24	0.037
182.46	0.033
182.67	0.021
182.89	0.021
183.10	0.037
183.32	0.041
183.54	0.034
183.75	0.038
183.97	0.049
184.18	0.039
184.40	0.020
184.61	0.032
184.83	0.031
185.04	0.034
185.26	0.037
185.48	0.029
185.69	0.025
185.91	0.025
186.12	0.024
186.34	0.021
186.55	0.023
186.77	0.030
186.98	0.018
187.20	0.016
187.42	0.021
187.63	0.010
187.85	0.014
188.06	0.019
188.28	0.019
188.49	0.017
188.71	0.013
188.92	0.012
189.14	0.000
189.36	0.005
189.57	0.003
189.79	-0.011
190.00	-0.009
190.22	-0.008
190.43	-0.011
190.65	-0.008
190.86	-0.001
191.08	-0.007
191.29	-0.009
191.51	-0.003
191.72	-0.007
191.94	-0.003
192.16	0.010
192.37	0.011
192.59	0.007
192.80	0.007
193.02	0.016
193.23	0.014
193.45	0.013
193.66	0.016
193.88	0.019
194.09	0.016
194.31	0.006
194.52	-0.002
194.74	-0.006
194.95	-0.009
195.17	-0.007
195.38	-0.020
195.60	-0.035
195.81	-0.026
196.03	-0.024
196.25	-0.020
196.46	-0.020
196.68	-0.012
196.89	-0.007
197.11	-0.000
197.32	-0.004
197.54	-0.012
197.75	0.002
197.97	0.013
198.18	0.006
198.40	0.016
198.61	0.007
198.83	0.013
199.04	0.015
199.26	0.012
199.47	0.004
199.69	0.013
199.90	0.025
200.12	0.016
200.33	0.013
200.55	0.013
200.76	0.001
200.98	-0.003
201.19	-0.006
201.41	-0.011
201.62	-0.007
201.84	-0.004
202.05	-0.005
202.27	-0.004
202.48	-0.001
202.70	0.009
202.91	0.013
203.13	0.009
203.34	0.008
203.56	0.010
203.77	0.015
203.99	0.006
204.20	0.004
204.42	0.000
204.63	-0.002
204.85	-0.006
205.06	-0.019
205.28	-0.018
205.49	-0.015
205.71	0.000
205.92	-0.000
206.14	-0.006
206.35	0.004
206.56	0.016
206.78	0.018
206.99	0.016
207.21	0.021
207.42	0.024
207.64	0.021
207.85	0.020
208.07	0.016
208.28	0.018
208.50	0.029
208.71	0.025
208.93	0.017
209.14	0.024
209.36	0.023
209.57	0.020
209.79	0.027
210.00	0.024
210.22	0.030
210.43	0.023
210.64	0.023
210.86	0.009
211.07	0.004
211.29	0.007
211.50	-0.002
211.72	-0.005
211.93	-0.005
212.15	-0.014
212.36	-0.018
212.58	-0.024
212.79	-0.015
213.01	-0.026
213.22	-0.017
213.43	-0.013
213.65	-0.013
213.86	-0.011
214.08	-0.005
214.29	-0.004
214.51	-0.002
214.72	0.005
214.94	0.003
215.15	0.001
215.36	0.007
215.58	0.003
215.79	-0.002
216.01	-0.002
216.22	-0.001
216.44	-0.009
216.65	-0.016
216.87	-0.011
217.08	-0.012
217.29	-0.006
217.51	-0.007
217.72	-0.009
217.94	-0.003
218.15	0.002
218.37	-0.004
218.58	-0.006
218.80	0.001
219.01	0.005
219.22	0.002
219.44	0.004
219.65	0.001
219.87	0.002
220.08	-0.000
220.30	-0.010
220.51	-0.011
220.72	-0.006
220.94	-0.009
221.15	-0.010
221.37	-0.010
221.58	-0.011
221.79	-0.006
222.01	-0.008
222.22	-0.011
222.44	-0.012
222.65	-0.008
222.87	-0.010
223.08	-0.012
223.29	-0.011
223.51	-0.015
223.72	-0.012
223.94	-0.013
224.15	-0.017
224.36	-0.017
224.58	-0.018
224.79	-0.011
225.01	-0.012
225.22	-0.010
225.44	-0.009
225.65	-0.008
225.86	-0.007
226.08	-0.008
226.29	-0.009
226.51	-0.008
226.72	-0.006
226.93	-0.001
227.15	-0.008
227.36	-0.009
227.58	-0.011
227.79	-0.009
228.00	-0.011
228.22	-0.017
228.43	-0.020
228.65	-0.019
228.86	-0.019
229.07	-0.021
229.29	-0.027
229.50	-0.026
229.72	-0.023
229.93	-0.027
230.14	-0.028
230.36	-0.029
230.57	-0.027
230.78	-0.029
231.00	-0.033
231.21	-0.038
231.43	-0.037
231.64	-0.035
231.85	-0.034
232.07	-0.033
232.28	-0.032
232.50	-0.035
232.71	-0.035
232.92	-0.035
233.14	-0.036
233.35	-0.032
233.56	-0.029
233.78	-0.031
233.99	-0.035
234.21	-0.034
234.42	-0.033
234.63	-0.033
234.85	-0.032
235.06	-0.033
235.27	-0.032
235.49	-0.030
235.70	-0.031
235.91	-0.033
236.13	-0.032
236.34	-0.032
236.56	-0.035
236.77	-0.036
236.98	-0.036
237.20	-0.037
237.41	-0.036
237.62	-0.036
237.84	-0.037
238.05	-0.037
238.26	-0.036
238.48	-0.036
238.69	-0.034
238.91	-0.034
239.12	-0.034
239.33	-0.034
239.55	-0.033
239.76	-0.032
239.97	-0.031
240.19	-0.029
240.40	-0.029
240.61	-0.028
240.83	-0.028
241.04	-0.028
241.25	-0.028
241.47	-0.028
241.68	-0.026
241.89	-0.026
242.11	-0.025
242.32	-0.025
242.53	-0.025
242.75	-0.024
242.96	-0.023
243.17	-0.022
243.39	-0.021
243.60	-0.020
243.81	-0.020
244.03	-0.020
244.24	-0.020
244.45	-0.019
244.67	-0.019
244.88	-0.018
245.09	-0.017
245.31	-0.017
245.52	-0.017
245.73	-0.016
245.95	-0.016
246.16	-0.015
246.37	-0.015
246.59	-0.015
246.80	-0.015
247.01	-0.015
247.23	-0.015
247.44	-0.015
247.65	-0.014
247.87	-0.014
248.08	-0.014
248.29	-0.014
248.51	-0.014
248.72	-0.013
248.93	-0.013
249.15	-0.013
249.36	-0.013
249.57	-0.013
249.78	-0.013
250.00	-0.014
250.21	-0.013
250.42	-0.013
250.64	-0.013
250.85	-0.012
251.06	-0.012
251.28	-0.012
251.49	-0.012
251.70	-0.012
251.92	-0.011
252.13	-0.011
252.34	-0.010
252.55	-0.010
252.77	-0.010
252.98	-0.010
253.19	-0.010
253.41	-0.009
253.62	-0.009
253.83	-0.009
254.05	-0.009
254.26	-0.009
254.47	-0.009
254.68	-0.008
254.90	-0.008
255.11	-0.007
255.32	-0.007
255.54	-0.007
255.75	-0.007
255.96	-0.007
256.17	-0.008
256.39	-0.007
256.60	-0.007
256.81	-0.007
257.03	-0.007
257.24	-0.007
257.45	-0.006
257.66	-0.007
257.88	-0.007
258.09	-0.007
258.30	-0.007
258.51	-0.007
258.73	-0.007
258.94	-0.007
259.15	-0.007
259.37	-0.008
259.58	-0.008
259.79	-0.008
260.00	-0.008
260.22	-0.007
260.43	-0.007
260.64	-0.007
260.85	-0.008
261.07	-0.008
261.28	-0.007
261.49	-0.008
261.71	-0.008
261.92	-0.008
262.13	-0.008
262.34	-0.008
262.56	-0.008
262.77	-0.008
262.98	-0.008
263.19	-0.008
263.41	-0.008
263.62	-0.009
263.83	-0.009
264.04	-0.009
264.26	-0.009
264.47	-0.009
264.68	-0.009
264.89	-0.009
265.11	-0.009
265.32	-0.009
265.53	-0.009
265.74	-0.009
265.96	-0.009
266.17	-0.009
266.38	-0.009
266.59	-0.009
266.81	-0.009
267.02	-0.010
267.23	-0.010
267.44	-0.010
267.65	-0.011
267.87	-0.011
268.08	-0.011
268.29	-0.011
268.50	-0.012
268.72	-0.011
268.93	-0.011
269.14	-0.012
269.35	-0.012
269.57	-0.011
269.78	-0.011
269.99	-0.011
270.20	-0.012
270.41	-0.011
270.63	-0.011
270.84	-0.012
271.05	-0.012
271.26	-0.012
271.48	-0.012
271.69	-0.012
271.90	-0.012
272.11	-0.013
272.32	-0.013
272.54	-0.013
272.75	-0.013
272.96	-0.014
273.17	-0.014
273.39	-0.014
273.60	-0.014
273.81	-0.014
274.02	-0.014
274.23	-0.014
274.45	-0.014
274.66	-0.014
274.87	-0.014
275.08	-0.015
275.29	-0.014
275.51	-0.014
275.72	-0.014
275.93	-0.014
276.14	-0.014
276.35	-0.014
276.57	-0.014
276.78	-0.014
276.99	-0.014
277.20	-0.014
277.41	-0.014
277.63	-0.014
277.84	-0.014
278.05	-0.014
278.26	-0.014
278.47	-0.014
278.69	-0.014
278.90	-0.014
279.11	-0.013
279.32	-0.013
279.53	-0.013
279.74	-0.013
279.96	-0.013
280.17	-0.013
280.38	-0.012
280.59	-0.012
280.80	-0.012
281.02	-0.012
281.23	-0.012
281.44	-0.012
281.65	-0.011
281.86	-0.011
282.07	-0.011
282.29	-0.011
282.50	-0.010
282.71	-0.011
282.92	-0.010
283.13	-0.010
283.35	-0.010
283.56	-0.010
283.77	-0.010
283.98	-0.010
284.19	-0.010
284.40	-0.009
284.62	-0.009
284.83	-0.009
285.04	-0.008
285.25	-0.008
285.46	-0.008
285.67	-0.007
285.88	-0.007
286.10	-0.006
286.31	-0.006
286.52	-0.005
286.73	-0.005
286.94	-0.005
287.15	-0.004
287.37	-0.003
287.58	-0.003
287.79	-0.002
288.00	-0.002
288.21	-0.001
288.42	-0.001
288.63	-0.001
288.85	-0.000
289.06	0.000
289.27	0.001
289.48	0.001
289.69	0.001
289.90	0.002
290.11	0.002
290.33	0.002
290.54	0.003
290.75	0.003
290.96	0.003
291.17	0.003
291.38	0.004
291.59	0.004
291.81	0.004
292.02	0.004
292.23	0.005
292.44	0.005
292.65	0.005
292.86	0.005
293.07	0.005
293.28	0.005
293.50	0.006
293.71	0.006
293.92	0.006
294.13	0.006
294.34	0.007
294.55	0.007
294.76	0.007
294.97	0.007
295.19	0.007
295.40	0.007
295.61	0.007
295.82	0.007
296.03	0.007
296.24	0.007
296.45	0.007
296.66	0.007
296.87	0.007
297.09	0.007
297.30	0.007
297.51	0.007
297.72	0.007
297.93	0.007
298.14	0.007
298.35	0.008
298.56	0.007
298.77	0.008
298.99	0.008
299.20	0.008
299.41	0.008
299.62	0.008
299.83	0.008
300.04	0.008
300.25	0.008
300.46	0.008
300.67	0.008
300.88	0.008
301.10	0.008
301.31	0.008
301.52	0.008
301.73	0.008
301.94	0.008
302.15	0.008
302.36	0.008
302.57	0.008
302.78	0.008
302.99	0.008
303.20	0.008
303.41	0.008
303.63	0.008
303.84	0.008
304.05	0.008
304.26	0.008
304.47	0.008
304.68	0.008
304.89	0.009
305.10	0.009
305.31	0.009
305.52	0.009
305.73	0.009
305.94	0.009
306.15	0.009
306.37	0.009
306.58	0.009
306.79	0.009
307.00	0.009
307.21	0.009
307.42	0.009
307.63	0.009
307.84	0.009
308.05	0.009
308.26	0.009
308.47	0.009
308.68	0.009
308.89	0.009
309.10	0.009
309.31	0.009
309.52	0.009
309.73	0.009
309.95	0.009
310.16	0.009
310.37	0.009
310.58	0.009
310.79	0.009
311.00	0.009
311.21	0.009
311.42	0.009
311.63	0.009
311.84	0.009
312.05	0.009
312.26	0.009
312.47	0.009
312.68	0.010
312.89	0.010
313.10	0.010
313.31	0.010
313.52	0.010
313.73	0.010
313.94	0.010
314.15	0.010
314.36	0.010
314.57	0.010
314.78	0.011
314.99	0.010
315.21	0.010
315.42	0.010
315.63	0.010
315.84	0.010
316.05	0.010
316.26	0.010
316.47	0.010
316.68	0.010
316.89	0.010
317.10	0.010
317.31	0.011
317.52	0.011
317.73	0.011
317.94	0.011
318.15	0.011
318.36	0.011
318.57	0.011
318.78	0.011
318.99	0.011
319.20	0.011
319.41	0.011
319.62	0.011
319.83	0.011
320.04	0.011
320.25	0.011
320.46	0.011
320.67	0.011
320.88	0.011
321.09	0.011
321.30	0.011
321.51	0.011
321.72	0.011
321.93	0.011
322.14	0.011
322.35	0.011
322.56	0.011
322.77	0.011
322.98	0.011
323.19	0.011
323.40	0.011
323.61	0.011
323.82	0.011
324.03	0.011
324.24	0.011
324.45	0.011
324.66	0.011
324.87	0.011
325.08	0.011
325.29	0.011
325.50	0.011
325.71	0.011
325.92	0.011
326.13	0.011
326.34	0.011
326.55	0.011
326.76	0.011
326.97	0.011
327.18	0.011
327.39	0.011
327.60	0.011
327.80	0.011
328.01	0.011
328.22	0.011
328.43	0.011
328.64	0.011
328.85	0.011
329.06	0.011
329.27	0.011
329.48	0.011
329.69	0.011
329.90	0.011
330.11	0.011
330.32	0.011
330.53	0.011
330.74	0.011
330.95	0.011
331.16	0.011
331.37	0.011
331.58	0.011
331.79	0.011
332.00	0.011
332.21	0.011
332.42	0.011
332.63	0.011
332.83	0.011
333.04	0.011
333.25	0.011
333.46	0.011
333.67	0.010
333.88	0.011
334.09	0.010
334.30	0.010
334.51	0.010
334.72	0.010
334.93	0.010
335.14	0.010
335.35	0.010
335.56	0.010
335.77	0.010
335.98	0.010
336.18	0.010
336.39	0.010
336.60	0.010
336.81	0.010
337.02	0.010
337.23	0.010
337.44	0.010
337.65	0.010
337.86	0.010
338.07	0.009
338.28	0.009
338.49	0.009
338.70	0.009
338.91	0.009
339.11	0.009
339.32	0.009
339.53	0.009
339.74	0.009
339.95	0.008
340.16	0.008
340.37	0.008
340.58	0.008
340.79	0.008
341.00	0.008
341.21	0.008
341.41	0.008
341.62	0.008
341.83	0.008
342.04	0.008
342.25	0.008
342.46	0.007
342.67	0.007
342.88	0.007
343.09	0.007
343.30	0.007
343.50	0.007
343.71	0.007
343.92	0.007
344.13	0.007
344.34	0.008
344.55	0.007
344.76	0.007
344.97	0.007
345.18	0.007
345.38	0.007
345.59	0.007
345.80	0.007
346.01	0.007
346.22	0.007
346.43	0.007
346.64	0.007
346.85	0.007
347.06	0.007
347.26	0.007
347.47	0.006
347.68	0.006
347.89	0.006
348.10	0.006
348.31	0.006
348.52	0.006
348.73	0.006
348.93	0.006
349.14	0.006
349.35	0.006
349.56	0.006
349.77	0.006
349.98	0.006
350.19	0.005
350.39	0.005
350.60	0.005
350.81	0.005
351.02	0.005
351.23	0.005
351.44	0.005
351.65	0.005
351.86	0.005
352.06	0.005
352.27	0.005
352.48	0.005
352.69	0.005
352.90	0.005
353.11	0.005
353.31	0.005
353.52	0.005
353.73	0.005
353.94	0.005
354.15	0.005
354.36	0.005
354.57	0.005
354.77	0.005
354.98	0.005
355.19	0.005
355.40	0.005
355.61	0.005
355.82	0.005
356.02	0.005
356.23	0.005
356.44	0.005
356.65	0.005
356.86	0.005
357.07	0.004
357.27	0.005
357.48	0.005
357.69	0.004
357.90	0.004
358.11	0.004
358.32	0.004
358.52	0.004
358.73	0.004
358.94	0.004
359.15	0.004
359.36	0.004
359.56	0.004
359.77	0.004
359.98	0.004
360.19	0.004
360.40	0.004
360.61	0.004
360.81	0.004
361.02	0.004
361.23	0.004
361.44	0.004
361.65	0.004
361.85	0.004
362.06	0.004
362.27	0.004
362.48	0.004
362.69	0.004
362.89	0.004
363.10	0.004
363.31	0.004
363.52	0.004
363.73	0.004
363.93	0.004
364.14	0.004
364.35	0.004
364.56	0.004
364.77	0.004
364.97	0.004
365.18	0.004
365.39	0.004
365.60	0.004
365.81	0.004
366.01	0.004
366.22	0.004
366.43	0.003
366.64	0.003
366.84	0.003
367.05	0.004
367.26	0.004
367.47	0.004
367.68	0.004
367.88	0.004
368.09	0.004
368.30	0.004
368.51	0.004
368.71	0.004
368.92	0.004
369.13	0.004
369.34	0.004
369.55	0.004
369.75	0.004
369.96	0.003
370.17	0.003
370.38	0.003
370.58	0.003
370.79	0.003
371.00	0.003
371.21	0.003
371.41	0.003
371.62	0.003
371.83	0.003
372.04	0.003
372.24	0.003
372.45	0.003
372.66	0.003
372.87	0.003
373.07	0.003
373.28	0.003
373.49	0.003
373.70	0.003
373.90	0.003
374.11	0.003
374.32	0.003
374.53	0.003
374.73	0.003
374.94	0.003
375.15	0.003
375.36	0.003
375.56	0.003
375.77	0.003
375.98	0.003
376.19	0.003
376.39	0.003
376.60	0.003
376.81	0.003
377.02	0.003
377.22	0.003
377.43	0.003
377.64	0.003
377.84	0.003
378.05	0.003
378.26	0.003
378.47	0.003
378.67	0.003
378.88	0.003
379.09	0.003
379.30	0.003
379.50	0.002
379.71	0.002
379.92	0.003
380.12	0.002
380.33	0.002
380.54	0.002
380.75	0.002
380.95	0.002
381.16	0.002
381.37	0.002
381.57	0.002
381.78	0.002
381.99	0.002
382.20	0.002
382.40	0.003
382.61	0.003
382.82	0.003
383.02	0.003
383.23	0.003
383.44	0.003
383.64	0.003
383.85	0.003
384.06	0.003
384.27	0.003
384.47	0.002
384.68	0.002
384.89	0.002
385.09	0.002
385.30	0.002
385.51	0.002
385.71	0.002
385.92	0.002
386.13	0.002
386.33	0.002
386.54	0.002
386.75	0.002
386.95	0.002
387.16	0.002
387.37	0.002
387.58	0.002
387.78	0.002
387.99	0.002
388.20	0.002
388.40	0.002
388.61	0.002
388.82	0.002
389.02	0.002
389.23	0.002
389.44	0.002
389.64	0.002
389.85	0.002
390.06	0.002
390.26	0.002
390.47	0.002
390.68	0.002
390.88	0.002
391.09	0.002
391.30	0.002
391.50	0.002
391.71	0.002
391.92	0.002
392.12	0.002
392.33	0.002
392.53	0.002
392.74	0.002
392.95	0.002
393.15	0.002
393.36	0.002
393.57	0.002
393.77	0.002
393.98	0.002
394.19	0.002
394.39	0.002
394.60	0.002
394.81	0.002
395.01	0.002
395.22	0.002
395.43	0.002
395.63	0.002
395.84	0.002
396.04	0.002
396.25	0.002
396.46	0.002
396.66	0.002
396.87	0.002
397.08	0.002
397.28	0.002
397.49	0.002
397.69	0.002
397.90	0.002
398.11	0.002
398.31	0.001
398.52	0.002
398.73	0.002
398.93	0.002
399.14	0.001
399.34	0.001
399.55	0.002
399.76	0.001
399.96	0.001
400.17	0.001
400.37	0.001
400.58	0.001
400.79	0.001
400.99	0.001
401.20	0.001
401.41	0.001
401.61	0.001
401.82	0.001
402.02	0.002
402.23	0.001
402.44	0.001
402.64	0.001
402.85	0.001
403.05	0.001
403.26	0.001
403.47	0.002
403.67	0.002
403.88	0.001
404.08	0.002
404.29	0.001
404.50	0.001
404.70	0.001
404.91	0.001
405.11	0.001
405.32	0.001
405.52	0.001
405.73	0.001
405.94	0.001
406.14	0.001
406.35	0.001
406.55	0.001
406.76	0.001
406.97	0.001
407.17	0.001
407.38	0.001
407.58	0.001
407.79	0.001
407.99	0.001
408.20	0.001
408.41	0.001
408.61	0.001
408.82	0.001
409.02	0.001
409.23	0.001
409.43	0.001
409.64	0.001
409.84	0.001
410.05	0.001
410.26	0.001
410.46	0.001
410.67	0.001
410.87	0.001
411.08	0.001
411.28	0.001
411.49	0.001
411.69	0.001
411.90	0.001
412.11	0.001
412.31	0.001
412.52	0.001
412.72	0.001
412.93	0.001
413.13	0.001
413.34	0.001
413.54	0.001
413.75	0.001
413.95	0.001
414.16	0.001
414.37	0.001
414.57	0.001
414.78	0.001
414.98	0.001
415.19	0.001
415.39	0.001
415.60	0.001
415.80	0.001
416.01	0.001
416.21	0.001
416.42	0.001
416.62	0.001
416.83	0.001
417.03	0.001
417.24	0.000
417.44	0.000
417.65	0.000
417.86	0.000
418.06	0.000
418.27	0.000
418.47	0.000
418.68	0.000
418.88	0.000
419.09	0.000
419.29	0.000
419.50	0.000
419.70	0.000
419.91	0.000
420.11	0.000
420.32	0.000
420.52	0.000
420.73	0.000
420.93	0.000
421.14	0.000
421.34	0.000
421.55	0.000
421.75	0.000
421.96	0.000
422.16	0.000
422.37	0.000
422.57	0.000
422.78	0.000
422.98	0.000
423.19	0.000
423.39	0.000
423.60	0.000
423.80	0.001
424.01	0.001
424.21	0.001
424.42	0.001
424.62	0.001
424.83	0.001
425.03	0.001
425.23	0.001
425.44	0.001
425.64	0.001
425.85	0.001
426.05	0.001
426.26	0.000
426.46	0.000
426.67	0.000
426.87	0.000
427.08	0.000
427.28	0.000
427.49	0.000
427.69	0.000
427.90	0.000
428.10	0.000
428.31	0.000
428.51	-0.000
428.71	-0.000
428.92	-0.000
429.12	-0.000
429.33	-0.000
429.53	-0.000
429.74	-0.000
429.94	-0.000
430.15	-0.000
430.35	0.000
430.56	0.000
430.76	0.000
430.96	0.000
431.17	0.000
431.37	0.000
431.58	0.000
431.78	0.000
431.99	0.001
432.19	0.001
432.40	0.001
432.60	0.001
432.80	0.001
433.01	0.001
433.21	0.001
433.42	0.000
433.62	0.001
433.83	0.001
434.03	0.001
434.23	0.001
434.44	0.001
434.64	0.001
434.85	0.001
435.05	0.001
435.26	0.000
435.46	0.001
435.66	0.001
435.87	0.000
436.07	0.000
436.28	0.000
436.48	0.000
436.69	-0.000
436.89	-0.000
437.09	-0.000
437.30	-0.000
437.50	0.000
437.71	0.000
437.91	0.000
438.11	0.000
438.32	0.000
438.52	0.000
438.73	0.000
438.93	0.000
439.13	0.000
439.34	0.000
439.54	0.000
439.75	0.000
439.95	0.000
440.15	0.000
440.36	0.000
440.56	0.000
440.77	0.000
440.97	0.000
441.17	0.000
441.38	0.000
441.58	-0.000
441.79	-0.000
441.99	-0.000
442.19	-0.000
442.40	-0.000
442.60	-0.000
442.81	-0.000
443.01	-0.000
443.21	-0.000
443.42	-0.000
443.62	-0.000
443.82	-0.000
444.03	-0.000
444.23	-0.000
444.44	-0.000
444.64	-0.000
444.84	0.000
445.05	0.000
445.25	0.000
445.45	0.000
445.66	0.000
445.86	0.000
446.06	0.000
446.27	0.000
446.47	0.000
446.68	0.000
446.88	0.000
447.08	0.000
447.29	0.000
447.49	0.000
447.69	0.000
447.90	0.000
448.10	0.000
448.30	0.001
448.51	0.000
448.71	0.000
448.91	0.000
449.12	0.000
449.32	0.000
449.52	0.000
449.73	0.000
449.93	0.000
450.14	0.000
450.34	0.000
450.54	-0.000
450.75	0.000
450.95	0.000
451.15	0.000
451.36	0.000
451.56	0.000
451.76	0.000
451.97	-0.000
452.17	-0.000
452.37	-0.000
452.58	-0.000
452.78	-0.000
452.98	-0.000
453.19	-0.000
453.39	-0.000
453.59	-0.000
453.79	-0.000
454.00	0.000
454.20	0.000
454.40	0.000
454.61	0.000
454.81	0.000
455.01	0.000
455.22	0.000
455.42	0.000
455.62	0.000
455.83	0.000
456.03	0.000
456.23	0.000
456.44	0.000
456.64	0.000
456.84	0.001
457.04	0.001
457.25	0.001
457.45	0.000
457.65	0.000
457.86	0.000
458.06	0.000
458.26	0.000
458.47	0.000
458.67	0.000
458.87	-0.000
459.07	-0.000
459.28	-0.000
459.48	-0.000
459.68	-0.000
459.89	-0.000
460.09	0.000
460.29	-0.000
460.49	-0.000
460.70	0.000
460.90	0.000
461.10	0.000
461.31	0.000
