SpectraSuite Data File
++++++++++++++++++++++++++++++++++++
Date: Mon Jun 15 08:57:41 PDT 2015
User: introlabs
Dark Spectrum Present: Yes
Reference Spectrum Present: Yes
Number of Sampled Component Spectra: 1
Spectrometers: USB4H08886
Integration Time (usec): 44366 (USB4H08886)
Spectra Averaged: 20 (USB4H08886)
Boxcar Smoothing: 5 (USB4H08886)
Correct for Electrical Dark: Yes (USB4H08886)
Strobe/Lamp Enabled: No (USB4H08886)
Correct for Detector Non-linearity: Yes (USB4H08886)
Correct for Stray Light: Yes (USB4H08886)
Number of Pixels in Processed Spectrum: 3648
>>>>>Begin Processed Spectral Data<<<<<
178.14	0.704
178.36	0.704
178.57	0.704
178.79	0.120
179.01	-1.067
179.22	-0.080
179.44	-0.461
179.65	-0.000
179.87	-0.000
180.08	1.110
180.30	0.839
180.52	0.378
180.73	0.322
180.95	0.108
181.16	0.047
181.38	0.049
181.59	0.037
181.81	0.015
182.03	0.021
182.24	0.022
182.46	0.026
182.67	0.013
182.89	0.007
183.10	0.009
183.32	0.005
183.54	-0.002
183.75	-0.003
183.97	-0.002
184.18	0.002
184.40	-0.005
184.61	0.001
184.83	-0.000
185.04	0.002
185.26	0.007
185.48	0.007
185.69	0.003
185.91	0.006
186.12	0.006
186.34	0.007
186.55	0.005
186.77	0.005
186.98	-0.003
187.20	-0.009
187.42	-0.006
187.63	-0.003
187.85	-0.004
188.06	0.003
188.28	0.005
188.49	0.007
188.71	0.000
188.92	-0.003
189.14	-0.011
189.36	-0.006
189.57	0.001
189.79	-0.004
190.00	-0.012
190.22	-0.015
190.43	-0.015
190.65	-0.022
190.86	-0.018
191.08	-0.015
191.29	-0.007
191.51	-0.003
191.72	-0.002
191.94	0.003
192.16	0.009
192.37	0.016
192.59	0.025
192.80	0.025
193.02	0.034
193.23	0.037
193.45	0.029
193.66	0.023
193.88	0.026
194.09	0.022
194.31	0.015
194.52	0.012
194.74	0.005
194.95	-0.007
195.17	-0.005
195.38	-0.009
195.60	-0.019
195.81	-0.003
196.03	-0.002
196.25	0.008
196.46	0.010
196.68	0.006
196.89	0.007
197.11	0.012
197.32	0.011
197.54	0.009
197.75	0.014
197.97	0.014
198.18	-0.001
198.40	0.002
198.61	-0.006
198.83	-0.018
199.04	-0.012
199.26	-0.020
199.47	-0.028
199.69	-0.016
199.90	-0.006
200.12	-0.010
200.33	-0.003
200.55	0.002
200.76	-0.005
200.98	-0.011
201.19	-0.005
201.41	-0.007
201.62	-0.002
201.84	0.003
202.05	0.000
202.27	-0.008
202.48	-0.012
202.70	-0.011
202.91	-0.013
203.13	-0.009
203.34	-0.012
203.56	-0.008
203.77	-0.009
203.99	-0.015
204.20	-0.014
204.42	-0.020
204.63	-0.014
204.85	-0.013
205.06	-0.014
205.28	-0.010
205.49	-0.014
205.71	-0.008
205.92	-0.010
206.14	-0.012
206.35	-0.003
206.56	0.009
206.78	0.010
206.99	0.005
207.21	0.009
207.42	0.007
207.64	0.008
207.85	0.009
208.07	0.013
208.28	0.017
208.50	0.019
208.71	0.021
208.93	0.009
209.14	0.016
209.36	0.021
209.57	0.020
209.79	0.024
210.00	0.024
210.22	0.030
210.43	0.025
210.64	0.024
210.86	0.018
211.07	0.016
211.29	0.018
211.50	0.013
211.72	0.004
211.93	0.006
212.15	-0.001
212.36	-0.006
212.58	-0.009
212.79	-0.007
213.01	-0.010
213.22	-0.006
213.43	-0.004
213.65	-0.006
213.86	-0.002
214.08	0.011
214.29	0.007
214.51	0.007
214.72	0.008
214.94	0.007
215.15	0.010
215.36	0.007
215.58	0.007
215.79	0.002
216.01	0.005
216.22	0.004
216.44	-0.008
216.65	-0.008
216.87	0.001
217.08	-0.002
217.29	0.002
217.51	0.000
217.72	0.001
217.94	0.005
218.15	0.010
218.37	0.008
218.58	0.004
218.80	0.012
219.01	0.010
219.22	0.002
219.44	0.005
219.65	0.002
219.87	-0.000
220.08	0.002
220.30	-0.008
220.51	-0.009
220.72	-0.010
220.94	-0.012
221.15	-0.017
221.37	-0.018
221.58	-0.020
221.79	-0.012
222.01	-0.014
222.22	-0.015
222.44	-0.016
222.65	-0.011
222.87	-0.013
223.08	-0.014
223.29	-0.012
223.51	-0.011
223.72	-0.010
223.94	-0.014
224.15	-0.024
224.36	-0.020
224.58	-0.021
224.79	-0.017
225.01	-0.026
225.22	-0.026
225.44	-0.026
225.65	-0.025
225.86	-0.023
226.08	-0.023
226.29	-0.018
226.51	-0.015
226.72	-0.019
226.93	-0.014
227.15	-0.020
227.36	-0.013
227.58	-0.016
227.79	-0.012
228.00	-0.013
228.22	-0.020
228.43	-0.022
228.65	-0.023
228.86	-0.026
229.07	-0.024
229.29	-0.026
229.50	-0.023
229.72	-0.024
229.93	-0.025
230.14	-0.028
230.36	-0.030
230.57	-0.028
230.78	-0.029
231.00	-0.033
231.21	-0.035
231.43	-0.035
231.64	-0.035
231.85	-0.036
232.07	-0.036
232.28	-0.038
232.50	-0.040
232.71	-0.041
232.92	-0.042
233.14	-0.044
233.35	-0.040
233.56	-0.039
233.78	-0.041
233.99	-0.043
234.21	-0.043
234.42	-0.043
234.63	-0.042
234.85	-0.042
235.06	-0.042
235.27	-0.041
235.49	-0.039
235.70	-0.040
235.91	-0.040
236.13	-0.040
236.34	-0.041
236.56	-0.042
236.77	-0.042
236.98	-0.042
237.20	-0.041
237.41	-0.039
237.62	-0.038
237.84	-0.039
238.05	-0.040
238.26	-0.040
238.48	-0.039
238.69	-0.037
238.91	-0.036
239.12	-0.035
239.33	-0.035
239.55	-0.033
239.76	-0.033
239.97	-0.032
240.19	-0.032
240.40	-0.031
240.61	-0.031
240.83	-0.030
241.04	-0.030
241.25	-0.030
241.47	-0.029
241.68	-0.028
241.89	-0.028
242.11	-0.028
242.32	-0.028
242.53	-0.027
242.75	-0.026
242.96	-0.025
243.17	-0.025
243.39	-0.024
243.60	-0.023
243.81	-0.023
244.03	-0.024
244.24	-0.023
244.45	-0.022
244.67	-0.021
244.88	-0.020
245.09	-0.020
245.31	-0.020
245.52	-0.020
245.73	-0.019
245.95	-0.019
246.16	-0.018
246.37	-0.018
246.59	-0.017
246.80	-0.017
247.01	-0.016
247.23	-0.016
247.44	-0.016
247.65	-0.016
247.87	-0.016
248.08	-0.016
248.29	-0.015
248.51	-0.015
248.72	-0.015
248.93	-0.015
249.15	-0.015
249.36	-0.015
249.57	-0.014
249.78	-0.014
250.00	-0.014
250.21	-0.014
250.42	-0.013
250.64	-0.013
250.85	-0.012
251.06	-0.012
251.28	-0.012
251.49	-0.012
251.70	-0.012
251.92	-0.011
252.13	-0.010
252.34	-0.010
252.55	-0.010
252.77	-0.010
252.98	-0.010
253.19	-0.009
253.41	-0.009
253.62	-0.008
253.83	-0.008
254.05	-0.008
254.26	-0.008
254.47	-0.008
254.68	-0.009
254.90	-0.008
255.11	-0.008
255.32	-0.008
255.54	-0.008
255.75	-0.008
255.96	-0.008
256.17	-0.009
256.39	-0.008
256.60	-0.008
256.81	-0.008
257.03	-0.008
257.24	-0.008
257.45	-0.008
257.66	-0.008
257.88	-0.008
258.09	-0.008
258.30	-0.008
258.51	-0.008
258.73	-0.008
258.94	-0.008
259.15	-0.008
259.37	-0.008
259.58	-0.008
259.79	-0.008
260.00	-0.008
260.22	-0.007
260.43	-0.007
260.64	-0.008
260.85	-0.008
261.07	-0.008
261.28	-0.008
261.49	-0.008
261.71	-0.008
261.92	-0.008
262.13	-0.008
262.34	-0.008
262.56	-0.008
262.77	-0.008
262.98	-0.008
263.19	-0.008
263.41	-0.009
263.62	-0.009
263.83	-0.010
264.04	-0.010
264.26	-0.010
264.47	-0.010
264.68	-0.011
264.89	-0.011
265.11	-0.011
265.32	-0.011
265.53	-0.011
265.74	-0.011
265.96	-0.011
266.17	-0.011
266.38	-0.011
266.59	-0.011
266.81	-0.011
267.02	-0.011
267.23	-0.012
267.44	-0.012
267.65	-0.012
267.87	-0.013
268.08	-0.013
268.29	-0.013
268.50	-0.013
268.72	-0.013
268.93	-0.013
269.14	-0.013
269.35	-0.013
269.57	-0.013
269.78	-0.013
269.99	-0.013
270.20	-0.013
270.41	-0.013
270.63	-0.014
270.84	-0.014
271.05	-0.015
271.26	-0.015
271.48	-0.015
271.69	-0.015
271.90	-0.016
272.11	-0.016
272.32	-0.016
272.54	-0.017
272.75	-0.017
272.96	-0.017
273.17	-0.017
273.39	-0.016
273.60	-0.017
273.81	-0.017
274.02	-0.017
274.23	-0.017
274.45	-0.017
274.66	-0.017
274.87	-0.017
275.08	-0.017
275.29	-0.017
275.51	-0.017
275.72	-0.017
275.93	-0.017
276.14	-0.018
276.35	-0.017
276.57	-0.018
276.78	-0.018
276.99	-0.018
277.20	-0.018
277.41	-0.018
277.63	-0.018
277.84	-0.017
278.05	-0.017
278.26	-0.017
278.47	-0.017
278.69	-0.017
278.90	-0.017
279.11	-0.017
279.32	-0.017
279.53	-0.016
279.74	-0.016
279.96	-0.016
280.17	-0.016
280.38	-0.015
280.59	-0.015
280.80	-0.015
281.02	-0.015
281.23	-0.015
281.44	-0.014
281.65	-0.014
281.86	-0.014
282.07	-0.014
282.29	-0.014
282.50	-0.014
282.71	-0.014
282.92	-0.013
283.13	-0.013
283.35	-0.013
283.56	-0.013
283.77	-0.013
283.98	-0.013
284.19	-0.012
284.40	-0.012
284.62	-0.012
284.83	-0.011
285.04	-0.011
285.25	-0.010
285.46	-0.010
285.67	-0.009
285.88	-0.009
286.10	-0.008
286.31	-0.007
286.52	-0.007
286.73	-0.006
286.94	-0.006
287.15	-0.005
287.37	-0.004
287.58	-0.004
287.79	-0.003
288.00	-0.003
288.21	-0.002
288.42	-0.002
288.63	-0.002
288.85	-0.001
289.06	-0.001
289.27	-0.001
289.48	-0.000
289.69	0.000
289.90	0.001
290.11	0.001
290.33	0.002
290.54	0.002
290.75	0.002
290.96	0.002
291.17	0.003
291.38	0.003
291.59	0.003
291.81	0.004
292.02	0.004
292.23	0.004
292.44	0.004
292.65	0.005
292.86	0.005
293.07	0.005
293.28	0.005
293.50	0.006
293.71	0.006
293.92	0.006
294.13	0.006
294.34	0.007
294.55	0.007
294.76	0.007
294.97	0.007
295.19	0.007
295.40	0.007
295.61	0.007
295.82	0.007
296.03	0.007
296.24	0.007
296.45	0.007
296.66	0.007
296.87	0.008
297.09	0.008
297.30	0.008
297.51	0.008
297.72	0.008
297.93	0.008
298.14	0.008
298.35	0.008
298.56	0.008
298.77	0.008
298.99	0.008
299.20	0.008
299.41	0.009
299.62	0.008
299.83	0.009
300.04	0.009
300.25	0.009
300.46	0.009
300.67	0.009
300.88	0.009
301.10	0.009
301.31	0.009
301.52	0.009
301.73	0.009
301.94	0.009
302.15	0.009
302.36	0.009
302.57	0.009
302.78	0.009
302.99	0.009
303.20	0.009
303.41	0.009
303.63	0.009
303.84	0.009
304.05	0.009
304.26	0.009
304.47	0.009
304.68	0.009
304.89	0.010
305.10	0.010
305.31	0.010
305.52	0.010
305.73	0.010
305.94	0.010
306.15	0.010
306.37	0.010
306.58	0.010
306.79	0.010
307.00	0.010
307.21	0.010
307.42	0.010
307.63	0.010
307.84	0.011
308.05	0.011
308.26	0.010
308.47	0.010
308.68	0.010
308.89	0.010
309.10	0.010
309.31	0.010
309.52	0.010
309.73	0.011
309.95	0.011
310.16	0.011
310.37	0.011
310.58	0.011
310.79	0.011
311.00	0.011
311.21	0.011
311.42	0.011
311.63	0.011
311.84	0.011
312.05	0.011
312.26	0.011
312.47	0.011
312.68	0.011
312.89	0.011
313.10	0.011
313.31	0.012
313.52	0.011
313.73	0.012
313.94	0.012
314.15	0.012
314.36	0.012
314.57	0.012
314.78	0.012
314.99	0.012
315.21	0.012
315.42	0.012
315.63	0.012
315.84	0.012
316.05	0.012
316.26	0.012
316.47	0.012
316.68	0.012
316.89	0.012
317.10	0.012
317.31	0.013
317.52	0.013
317.73	0.013
317.94	0.013
318.15	0.013
318.36	0.013
318.57	0.013
318.78	0.013
318.99	0.013
319.20	0.013
319.41	0.013
319.62	0.013
319.83	0.013
320.04	0.013
320.25	0.013
320.46	0.013
320.67	0.013
320.88	0.013
321.09	0.013
321.30	0.013
321.51	0.013
321.72	0.013
321.93	0.013
322.14	0.013
322.35	0.013
322.56	0.013
322.77	0.013
322.98	0.013
323.19	0.013
323.40	0.013
323.61	0.013
323.82	0.013
324.03	0.013
324.24	0.013
324.45	0.013
324.66	0.013
324.87	0.013
325.08	0.013
325.29	0.013
325.50	0.013
325.71	0.013
325.92	0.013
326.13	0.013
326.34	0.013
326.55	0.013
326.76	0.013
326.97	0.013
327.18	0.013
327.39	0.013
327.60	0.013
327.80	0.013
328.01	0.013
328.22	0.013
328.43	0.013
328.64	0.013
328.85	0.013
329.06	0.013
329.27	0.013
329.48	0.013
329.69	0.013
329.90	0.013
330.11	0.013
330.32	0.013
330.53	0.013
330.74	0.013
330.95	0.013
331.16	0.013
331.37	0.013
331.58	0.013
331.79	0.013
332.00	0.013
332.21	0.013
332.42	0.013
332.63	0.013
332.83	0.013
333.04	0.013
333.25	0.013
333.46	0.013
333.67	0.012
333.88	0.012
334.09	0.012
334.30	0.012
334.51	0.012
334.72	0.012
334.93	0.012
335.14	0.012
335.35	0.012
335.56	0.012
335.77	0.011
335.98	0.011
336.18	0.011
336.39	0.011
336.60	0.011
336.81	0.011
337.02	0.011
337.23	0.011
337.44	0.011
337.65	0.011
337.86	0.011
338.07	0.011
338.28	0.011
338.49	0.011
338.70	0.011
338.91	0.010
339.11	0.010
339.32	0.010
339.53	0.010
339.74	0.010
339.95	0.010
340.16	0.010
340.37	0.010
340.58	0.010
340.79	0.010
341.00	0.010
341.21	0.010
341.41	0.009
341.62	0.009
341.83	0.009
342.04	0.009
342.25	0.009
342.46	0.009
342.67	0.008
342.88	0.008
343.09	0.009
343.30	0.008
343.50	0.008
343.71	0.008
343.92	0.008
344.13	0.008
344.34	0.008
344.55	0.008
344.76	0.008
344.97	0.008
345.18	0.008
345.38	0.008
345.59	0.008
345.80	0.007
346.01	0.008
346.22	0.008
346.43	0.007
346.64	0.007
346.85	0.007
347.06	0.007
347.26	0.007
347.47	0.007
347.68	0.007
347.89	0.007
348.10	0.007
348.31	0.007
348.52	0.007
348.73	0.007
348.93	0.007
349.14	0.006
349.35	0.006
349.56	0.006
349.77	0.006
349.98	0.006
350.19	0.006
350.39	0.006
350.60	0.006
350.81	0.006
351.02	0.006
351.23	0.006
351.44	0.006
351.65	0.006
351.86	0.006
352.06	0.006
352.27	0.006
352.48	0.006
352.69	0.006
352.90	0.006
353.11	0.006
353.31	0.006
353.52	0.006
353.73	0.006
353.94	0.006
354.15	0.006
354.36	0.005
354.57	0.005
354.77	0.005
354.98	0.005
355.19	0.005
355.40	0.005
355.61	0.005
355.82	0.005
356.02	0.005
356.23	0.005
356.44	0.005
356.65	0.005
356.86	0.005
357.07	0.005
357.27	0.005
357.48	0.005
357.69	0.005
357.90	0.005
358.11	0.005
358.32	0.005
358.52	0.005
358.73	0.005
358.94	0.005
359.15	0.005
359.36	0.005
359.56	0.005
359.77	0.005
359.98	0.005
360.19	0.005
360.40	0.005
360.61	0.004
360.81	0.005
361.02	0.005
361.23	0.005
361.44	0.005
361.65	0.004
361.85	0.004
362.06	0.004
362.27	0.004
362.48	0.004
362.69	0.004
362.89	0.004
363.10	0.004
363.31	0.004
363.52	0.004
363.73	0.004
363.93	0.004
364.14	0.004
364.35	0.004
364.56	0.004
364.77	0.004
364.97	0.004
365.18	0.004
365.39	0.004
365.60	0.004
365.81	0.004
366.01	0.004
366.22	0.004
366.43	0.004
366.64	0.004
366.84	0.004
367.05	0.004
367.26	0.004
367.47	0.004
367.68	0.004
367.88	0.004
368.09	0.004
368.30	0.004
368.51	0.004
368.71	0.004
368.92	0.004
369.13	0.004
369.34	0.004
369.55	0.004
369.75	0.004
369.96	0.004
370.17	0.004
370.38	0.004
370.58	0.004
370.79	0.004
371.00	0.004
371.21	0.004
371.41	0.004
371.62	0.003
371.83	0.003
372.04	0.003
372.24	0.004
372.45	0.004
372.66	0.004
372.87	0.004
373.07	0.004
373.28	0.004
373.49	0.004
373.70	0.004
373.90	0.003
374.11	0.003
374.32	0.003
374.53	0.003
374.73	0.003
374.94	0.003
375.15	0.003
375.36	0.003
375.56	0.003
375.77	0.003
375.98	0.003
376.19	0.003
376.39	0.003
376.60	0.003
376.81	0.003
377.02	0.003
377.22	0.003
377.43	0.003
377.64	0.003
377.84	0.003
378.05	0.003
378.26	0.003
378.47	0.003
378.67	0.003
378.88	0.003
379.09	0.003
379.30	0.003
379.50	0.003
379.71	0.002
379.92	0.003
380.12	0.002
380.33	0.002
380.54	0.003
380.75	0.003
380.95	0.003
381.16	0.002
381.37	0.002
381.57	0.002
381.78	0.003
381.99	0.003
382.20	0.003
382.40	0.003
382.61	0.003
382.82	0.003
383.02	0.002
383.23	0.002
383.44	0.003
383.64	0.002
383.85	0.003
384.06	0.002
384.27	0.002
384.47	0.002
384.68	0.002
384.89	0.002
385.09	0.002
385.30	0.002
385.51	0.002
385.71	0.002
385.92	0.002
386.13	0.002
386.33	0.002
386.54	0.002
386.75	0.002
386.95	0.002
387.16	0.002
387.37	0.002
387.58	0.002
387.78	0.002
387.99	0.002
388.20	0.002
388.40	0.003
388.61	0.002
388.82	0.002
389.02	0.002
389.23	0.002
389.44	0.002
389.64	0.002
389.85	0.002
390.06	0.002
390.26	0.002
390.47	0.002
390.68	0.002
390.88	0.002
391.09	0.002
391.30	0.002
391.50	0.002
391.71	0.002
391.92	0.002
392.12	0.001
392.33	0.002
392.53	0.002
392.74	0.002
392.95	0.002
393.15	0.002
393.36	0.002
393.57	0.002
393.77	0.002
393.98	0.002
394.19	0.002
394.39	0.002
394.60	0.002
394.81	0.002
395.01	0.002
395.22	0.002
395.43	0.002
395.63	0.002
395.84	0.002
396.04	0.002
396.25	0.002
396.46	0.001
396.66	0.001
396.87	0.001
397.08	0.001
397.28	0.001
397.49	0.002
397.69	0.002
397.90	0.002
398.11	0.002
398.31	0.002
398.52	0.002
398.73	0.002
398.93	0.002
399.14	0.002
399.34	0.002
399.55	0.002
399.76	0.001
399.96	0.002
400.17	0.002
400.37	0.002
400.58	0.001
400.79	0.002
400.99	0.001
401.20	0.001
401.41	0.001
401.61	0.002
401.82	0.001
402.02	0.002
402.23	0.001
402.44	0.001
402.64	0.001
402.85	0.001
403.05	0.001
403.26	0.001
403.47	0.001
403.67	0.001
403.88	0.001
404.08	0.001
404.29	0.001
404.50	0.001
404.70	0.001
404.91	0.001
405.11	0.001
405.32	0.001
405.52	0.001
405.73	0.001
405.94	0.001
406.14	0.001
406.35	0.001
406.55	0.001
406.76	0.001
406.97	0.001
407.17	0.001
407.38	0.001
407.58	0.001
407.79	0.001
407.99	0.001
408.20	0.001
408.41	0.001
408.61	0.001
408.82	0.001
409.02	0.001
409.23	0.001
409.43	0.001
409.64	0.001
409.84	0.001
410.05	0.001
410.26	0.001
410.46	0.001
410.67	0.001
410.87	0.001
411.08	0.001
411.28	0.001
411.49	0.001
411.69	0.001
411.90	0.001
412.11	0.001
412.31	0.001
412.52	0.001
412.72	0.001
412.93	0.001
413.13	0.001
413.34	0.001
413.54	0.001
413.75	0.001
413.95	0.001
414.16	0.001
414.37	0.001
414.57	0.001
414.78	0.001
414.98	0.001
415.19	0.001
415.39	0.001
415.60	0.001
415.80	0.000
416.01	0.001
416.21	0.001
416.42	0.001
416.62	0.000
416.83	0.000
417.03	0.000
417.24	0.000
417.44	0.000
417.65	0.000
417.86	0.000
418.06	0.000
418.27	0.000
418.47	-0.000
418.68	-0.000
418.88	-0.000
419.09	-0.000
419.29	-0.000
419.50	-0.000
419.70	-0.000
419.91	-0.000
420.11	-0.000
420.32	-0.000
420.52	-0.000
420.73	-0.000
420.93	-0.000
421.14	0.000
421.34	0.000
421.55	0.000
421.75	0.000
421.96	-0.000
422.16	-0.000
422.37	-0.000
422.57	-0.000
422.78	0.000
422.98	-0.000
423.19	0.000
423.39	0.000
423.60	0.000
423.80	0.000
424.01	0.000
424.21	0.000
424.42	0.000
424.62	0.000
424.83	0.000
425.03	0.000
425.23	0.000
425.44	0.000
425.64	0.000
425.85	0.000
426.05	0.000
426.26	0.000
426.46	0.000
426.67	0.000
426.87	0.000
427.08	-0.000
427.28	-0.000
427.49	-0.000
427.69	-0.000
427.90	-0.000
428.10	-0.000
428.31	-0.000
428.51	-0.000
428.71	-0.000
428.92	-0.000
429.12	-0.000
429.33	-0.000
429.53	-0.000
429.74	-0.000
429.94	-0.000
430.15	-0.000
430.35	-0.000
430.56	-0.000
430.76	0.000
430.96	0.000
431.17	0.000
431.37	-0.000
431.58	0.000
431.78	0.000
431.99	0.000
432.19	0.000
432.40	0.000
432.60	0.000
432.80	0.000
433.01	0.000
433.21	0.000
433.42	0.000
433.62	0.000
433.83	0.000
434.03	0.000
434.23	0.000
434.44	0.000
434.64	0.000
434.85	0.000
435.05	-0.000
435.26	0.000
435.46	0.000
435.66	0.000
435.87	-0.000
436.07	-0.000
436.28	-0.000
436.48	-0.000
436.69	-0.000
436.89	-0.000
437.09	-0.000
437.30	-0.000
437.50	-0.000
437.71	-0.000
437.91	-0.000
438.11	-0.000
438.32	-0.000
438.52	-0.000
438.73	-0.000
438.93	-0.000
439.13	-0.000
439.34	-0.000
439.54	-0.000
439.75	-0.000
439.95	-0.000
440.15	-0.000
440.36	-0.000
440.56	-0.000
440.77	-0.000
440.97	-0.000
441.17	-0.000
441.38	-0.000
441.58	-0.000
441.79	-0.001
441.99	-0.001
442.19	-0.001
442.40	-0.001
442.60	-0.001
442.81	-0.001
443.01	-0.001
443.21	-0.001
443.42	-0.001
443.62	-0.001
443.82	-0.000
444.03	-0.000
444.23	-0.000
444.44	-0.000
444.64	-0.000
444.84	-0.000
445.05	-0.000
445.25	-0.000
445.45	-0.000
445.66	-0.000
445.86	-0.000
446.06	-0.000
446.27	-0.000
446.47	-0.000
446.68	-0.000
446.88	-0.000
447.08	-0.000
447.29	-0.000
447.49	-0.000
447.69	-0.000
447.90	-0.000
448.10	-0.000
448.30	-0.000
448.51	-0.000
448.71	-0.000
448.91	-0.000
449.12	-0.000
449.32	-0.000
449.52	-0.000
449.73	-0.000
449.93	-0.000
450.14	-0.000
450.34	-0.000
450.54	-0.000
450.75	-0.000
450.95	-0.000
451.15	-0.000
451.36	-0.000
451.56	-0.000
451.76	-0.001
451.97	-0.001
452.17	-0.001
452.37	-0.001
452.58	-0.001
452.78	-0.001
452.98	-0.001
453.19	-0.001
453.39	-0.001
453.59	-0.001
453.79	-0.001
454.00	-0.001
454.20	-0.001
454.40	-0.001
454.61	-0.001
454.81	-0.000
455.01	-0.000
455.22	-0.000
455.42	-0.000
455.62	-0.000
455.83	-0.000
456.03	-0.000
456.23	-0.000
456.44	-0.000
456.64	-0.000
456.84	-0.000
457.04	-0.000
457.25	-0.000
457.45	-0.000
457.65	-0.000
457.86	-0.000
458.06	-0.000
458.26	-0.000
458.47	-0.000
458.67	-0.000
458.87	-0.000
459.07	-0.000
459.28	-0.000
459.48	-0.000
459.68	-0.000
