SpectraSuite Data File
++++++++++++++++++++++++++++++++++++
Date: Mon Jun 15 07:46:36 PDT 2015
User: introlabs
Dark Spectrum Present: Yes
Reference Spectrum Present: Yes
Number of Sampled Component Spectra: 1
Spectrometers: USB4H08886
Integration Time (usec): 44366 (USB4H08886)
Spectra Averaged: 20 (USB4H08886)
Boxcar Smoothing: 5 (USB4H08886)
Correct for Electrical Dark: Yes (USB4H08886)
Strobe/Lamp Enabled: No (USB4H08886)
Correct for Detector Non-linearity: Yes (USB4H08886)
Correct for Stray Light: Yes (USB4H08886)
Number of Pixels in Processed Spectrum: 3648
>>>>>Begin Processed Spectral Data<<<<<
178.14	-0.000
178.36	-0.000
178.57	-0.000
178.79	0.417
179.01	-1.280
179.22	-0.000
179.44	0.765
179.65	0.162
179.87	2.407
180.08	0.439
180.30	0.296
180.52	0.418
180.73	0.099
180.95	0.065
181.16	0.019
181.38	0.005
181.59	0.025
181.81	0.004
182.03	0.023
182.24	0.030
182.46	0.020
182.67	0.014
182.89	0.014
183.10	0.031
183.32	0.031
183.54	0.027
183.75	0.031
183.97	0.034
184.18	0.033
184.40	0.028
184.61	0.039
184.83	0.047
185.04	0.039
185.26	0.040
185.48	0.033
185.69	0.028
185.91	0.028
186.12	0.024
186.34	0.028
186.55	0.018
186.77	0.015
186.98	-0.002
187.20	-0.007
187.42	0.002
187.63	0.002
187.85	0.001
188.06	0.011
188.28	0.009
188.49	0.017
188.71	0.004
188.92	0.003
189.14	-0.004
189.36	0.004
189.57	0.008
189.79	0.002
190.00	0.005
190.22	0.006
190.43	0.004
190.65	-0.002
190.86	-0.005
191.08	0.000
191.29	0.008
191.51	0.017
191.72	0.012
191.94	0.016
192.16	0.017
192.37	0.017
192.59	0.024
192.80	0.025
193.02	0.038
193.23	0.040
193.45	0.037
193.66	0.038
193.88	0.036
194.09	0.044
194.31	0.036
194.52	0.034
194.74	0.028
194.95	0.026
195.17	0.019
195.38	0.015
195.60	0.006
195.81	0.008
196.03	0.005
196.25	0.015
196.46	0.004
196.68	0.008
196.89	0.020
197.11	0.020
197.32	0.013
197.54	0.006
197.75	0.020
197.97	0.021
198.18	0.020
198.40	0.028
198.61	0.018
198.83	0.013
199.04	0.014
199.26	-0.003
199.47	-0.009
199.69	0.002
199.90	0.021
200.12	0.008
200.33	0.010
200.55	0.006
200.76	-0.001
200.98	-0.004
201.19	-0.001
201.41	-0.009
201.62	-0.002
201.84	0.005
202.05	0.001
202.27	-0.007
202.48	-0.007
202.70	0.000
202.91	0.004
203.13	0.004
203.34	0.004
203.56	0.005
203.77	0.008
203.99	0.003
204.20	-0.004
204.42	-0.004
204.63	-0.002
204.85	-0.002
205.06	-0.008
205.28	-0.014
205.49	-0.016
205.71	-0.008
205.92	-0.006
206.14	-0.007
206.35	0.002
206.56	0.013
206.78	0.011
206.99	0.013
207.21	0.017
207.42	0.025
207.64	0.028
207.85	0.037
208.07	0.035
208.28	0.039
208.50	0.043
208.71	0.043
208.93	0.038
209.14	0.037
209.36	0.029
209.57	0.035
209.79	0.031
210.00	0.036
210.22	0.033
210.43	0.032
210.64	0.033
210.86	0.030
211.07	0.027
211.29	0.027
211.50	0.023
211.72	0.020
211.93	0.010
212.15	0.008
212.36	0.003
212.58	0.003
212.79	0.002
213.01	-0.007
213.22	-0.007
213.43	-0.012
213.65	-0.009
213.86	-0.007
214.08	0.002
214.29	0.003
214.51	0.003
214.72	0.001
214.94	0.003
215.15	0.006
215.36	0.009
215.58	0.012
215.79	0.013
216.01	0.010
216.22	0.014
216.44	0.010
216.65	0.008
216.87	0.014
217.08	0.024
217.29	0.027
217.51	0.026
217.72	0.028
217.94	0.031
218.15	0.039
218.37	0.036
218.58	0.030
218.80	0.035
219.01	0.039
219.22	0.030
219.44	0.023
219.65	0.020
219.87	0.021
220.08	0.014
220.30	0.004
220.51	-0.002
220.72	-0.003
220.94	-0.008
221.15	-0.005
221.37	-0.009
221.58	-0.008
221.79	-0.005
222.01	-0.013
222.22	-0.019
222.44	-0.014
222.65	-0.015
222.87	-0.014
223.08	-0.011
223.29	-0.006
223.51	-0.009
223.72	-0.009
223.94	-0.011
224.15	-0.009
224.36	-0.000
224.58	-0.003
224.79	0.000
225.01	-0.001
225.22	-0.001
225.44	0.000
225.65	0.005
225.86	0.005
226.08	0.007
226.29	0.007
226.51	0.007
226.72	0.005
226.93	0.011
227.15	0.005
227.36	0.009
227.58	0.009
227.79	0.008
228.00	0.007
228.22	0.000
228.43	0.000
228.65	0.001
228.86	0.003
229.07	0.005
229.29	0.002
229.50	0.004
229.72	0.003
229.93	0.003
230.14	0.003
230.36	0.000
230.57	0.002
230.78	0.001
231.00	-0.001
231.21	-0.006
231.43	-0.008
231.64	-0.007
231.85	-0.004
232.07	-0.002
232.28	-0.003
232.50	-0.005
232.71	-0.003
232.92	-0.002
233.14	-0.001
233.35	0.000
233.56	0.001
233.78	0.001
233.99	0.002
234.21	0.001
234.42	0.000
234.63	0.001
234.85	0.002
235.06	0.000
235.27	0.000
235.49	0.001
235.70	0.000
235.91	0.001
236.13	0.000
236.34	-0.003
236.56	-0.005
236.77	-0.006
236.98	-0.006
237.20	-0.007
237.41	-0.006
237.62	-0.006
237.84	-0.006
238.05	-0.006
238.26	-0.007
238.48	-0.006
238.69	-0.004
238.91	-0.003
239.12	-0.003
239.33	-0.003
239.55	-0.002
239.76	-0.002
239.97	-0.001
240.19	-0.000
240.40	-0.000
240.61	0.001
240.83	-0.000
241.04	0.000
241.25	0.001
241.47	0.001
241.68	0.003
241.89	0.003
242.11	0.003
242.32	0.003
242.53	0.002
242.75	0.003
242.96	0.003
243.17	0.003
243.39	0.003
243.60	0.003
243.81	0.003
244.03	0.002
244.24	0.003
244.45	0.004
244.67	0.004
244.88	0.005
245.09	0.005
245.31	0.005
245.52	0.004
245.73	0.004
245.95	0.005
246.16	0.005
246.37	0.005
246.59	0.005
246.80	0.005
247.01	0.005
247.23	0.004
247.44	0.004
247.65	0.004
247.87	0.005
248.08	0.005
248.29	0.005
248.51	0.005
248.72	0.005
248.93	0.005
249.15	0.006
249.36	0.006
249.57	0.006
249.78	0.006
250.00	0.006
250.21	0.006
250.42	0.006
250.64	0.006
250.85	0.007
251.06	0.007
251.28	0.007
251.49	0.006
251.70	0.007
251.92	0.007
252.13	0.008
252.34	0.008
252.55	0.007
252.77	0.007
252.98	0.007
253.19	0.007
253.41	0.007
253.62	0.007
253.83	0.008
254.05	0.008
254.26	0.008
254.47	0.008
254.68	0.007
254.90	0.007
255.11	0.008
255.32	0.008
255.54	0.008
255.75	0.008
255.96	0.008
256.17	0.008
256.39	0.007
256.60	0.007
256.81	0.007
257.03	0.007
257.24	0.007
257.45	0.007
257.66	0.007
257.88	0.007
258.09	0.007
258.30	0.006
258.51	0.006
258.73	0.006
258.94	0.006
259.15	0.006
259.37	0.006
259.58	0.006
259.79	0.006
260.00	0.005
260.22	0.006
260.43	0.006
260.64	0.006
260.85	0.006
261.07	0.005
261.28	0.006
261.49	0.006
261.71	0.006
261.92	0.006
262.13	0.006
262.34	0.006
262.56	0.006
262.77	0.006
262.98	0.006
263.19	0.006
263.41	0.006
263.62	0.005
263.83	0.005
264.04	0.005
264.26	0.004
264.47	0.004
264.68	0.004
264.89	0.004
265.11	0.004
265.32	0.004
265.53	0.005
265.74	0.004
265.96	0.004
266.17	0.005
266.38	0.005
266.59	0.005
266.81	0.005
267.02	0.005
267.23	0.005
267.44	0.004
267.65	0.004
267.87	0.004
268.08	0.004
268.29	0.004
268.50	0.004
268.72	0.004
268.93	0.004
269.14	0.004
269.35	0.004
269.57	0.004
269.78	0.004
269.99	0.004
270.20	0.004
270.41	0.004
270.63	0.004
270.84	0.004
271.05	0.003
271.26	0.003
271.48	0.003
271.69	0.003
271.90	0.003
272.11	0.003
272.32	0.002
272.54	0.002
272.75	0.003
272.96	0.002
273.17	0.002
273.39	0.003
273.60	0.002
273.81	0.002
274.02	0.002
274.23	0.002
274.45	0.002
274.66	0.003
274.87	0.002
275.08	0.002
275.29	0.002
275.51	0.002
275.72	0.002
275.93	0.002
276.14	0.002
276.35	0.002
276.57	0.002
276.78	0.002
276.99	0.002
277.20	0.002
277.41	0.002
277.63	0.002
277.84	0.002
278.05	0.002
278.26	0.001
278.47	0.001
278.69	0.002
278.90	0.002
279.11	0.002
279.32	0.002
279.53	0.003
279.74	0.002
279.96	0.002
280.17	0.002
280.38	0.003
280.59	0.003
280.80	0.003
281.02	0.003
281.23	0.003
281.44	0.003
281.65	0.003
281.86	0.003
282.07	0.003
282.29	0.003
282.50	0.003
282.71	0.003
282.92	0.003
283.13	0.003
283.35	0.003
283.56	0.003
283.77	0.004
283.98	0.004
284.19	0.004
284.40	0.004
284.62	0.004
284.83	0.004
285.04	0.004
285.25	0.005
285.46	0.005
285.67	0.005
285.88	0.005
286.10	0.005
286.31	0.005
286.52	0.005
286.73	0.006
286.94	0.006
287.15	0.006
287.37	0.006
287.58	0.007
287.79	0.007
288.00	0.007
288.21	0.007
288.42	0.008
288.63	0.008
288.85	0.008
289.06	0.008
289.27	0.008
289.48	0.008
289.69	0.008
289.90	0.008
290.11	0.008
290.33	0.009
290.54	0.009
290.75	0.009
290.96	0.009
291.17	0.009
291.38	0.009
291.59	0.010
291.81	0.009
292.02	0.009
292.23	0.009
292.44	0.009
292.65	0.009
292.86	0.010
293.07	0.010
293.28	0.009
293.50	0.010
293.71	0.010
293.92	0.010
294.13	0.010
294.34	0.010
294.55	0.010
294.76	0.010
294.97	0.010
295.19	0.010
295.40	0.010
295.61	0.010
295.82	0.010
296.03	0.010
296.24	0.010
296.45	0.010
296.66	0.010
296.87	0.010
297.09	0.010
297.30	0.010
297.51	0.010
297.72	0.010
297.93	0.010
298.14	0.010
298.35	0.010
298.56	0.010
298.77	0.010
298.99	0.010
299.20	0.010
299.41	0.010
299.62	0.010
299.83	0.010
300.04	0.010
300.25	0.010
300.46	0.010
300.67	0.010
300.88	0.010
301.10	0.010
301.31	0.010
301.52	0.010
301.73	0.010
301.94	0.010
302.15	0.010
302.36	0.010
302.57	0.010
302.78	0.010
302.99	0.010
303.20	0.010
303.41	0.010
303.63	0.010
303.84	0.010
304.05	0.010
304.26	0.010
304.47	0.010
304.68	0.010
304.89	0.010
305.10	0.010
305.31	0.010
305.52	0.010
305.73	0.010
305.94	0.010
306.15	0.010
306.37	0.010
306.58	0.010
306.79	0.010
307.00	0.010
307.21	0.010
307.42	0.010
307.63	0.010
307.84	0.010
308.05	0.010
308.26	0.010
308.47	0.010
308.68	0.010
308.89	0.010
309.10	0.010
309.31	0.010
309.52	0.010
309.73	0.010
309.95	0.010
310.16	0.010
310.37	0.010
310.58	0.010
310.79	0.010
311.00	0.009
311.21	0.010
311.42	0.010
311.63	0.010
311.84	0.010
312.05	0.010
312.26	0.010
312.47	0.010
312.68	0.010
312.89	0.010
313.10	0.010
313.31	0.010
313.52	0.010
313.73	0.010
313.94	0.010
314.15	0.010
314.36	0.010
314.57	0.010
314.78	0.010
314.99	0.010
315.21	0.010
315.42	0.010
315.63	0.010
315.84	0.010
316.05	0.010
316.26	0.010
316.47	0.010
316.68	0.010
316.89	0.010
317.10	0.010
317.31	0.010
317.52	0.010
317.73	0.010
317.94	0.010
318.15	0.010
318.36	0.010
318.57	0.010
318.78	0.010
318.99	0.010
319.20	0.010
319.41	0.010
319.62	0.010
319.83	0.010
320.04	0.010
320.25	0.010
320.46	0.010
320.67	0.010
320.88	0.010
321.09	0.010
321.30	0.010
321.51	0.010
321.72	0.010
321.93	0.010
322.14	0.010
322.35	0.010
322.56	0.010
322.77	0.010
322.98	0.010
323.19	0.010
323.40	0.010
323.61	0.010
323.82	0.010
324.03	0.010
324.24	0.010
324.45	0.010
324.66	0.010
324.87	0.010
325.08	0.010
325.29	0.010
325.50	0.010
325.71	0.010
325.92	0.010
326.13	0.010
326.34	0.010
326.55	0.009
326.76	0.009
326.97	0.009
327.18	0.009
327.39	0.009
327.60	0.009
327.80	0.010
328.01	0.009
328.22	0.009
328.43	0.010
328.64	0.010
328.85	0.010
329.06	0.010
329.27	0.010
329.48	0.010
329.69	0.009
329.90	0.010
330.11	0.009
330.32	0.009
330.53	0.009
330.74	0.009
330.95	0.009
331.16	0.009
331.37	0.010
331.58	0.010
331.79	0.010
332.00	0.010
332.21	0.010
332.42	0.009
332.63	0.009
332.83	0.009
333.04	0.009
333.25	0.009
333.46	0.009
333.67	0.009
333.88	0.009
334.09	0.009
334.30	0.009
334.51	0.009
334.72	0.009
334.93	0.009
335.14	0.009
335.35	0.009
335.56	0.009
335.77	0.009
335.98	0.009
336.18	0.009
336.39	0.009
336.60	0.009
336.81	0.009
337.02	0.009
337.23	0.009
337.44	0.009
337.65	0.009
337.86	0.009
338.07	0.009
338.28	0.009
338.49	0.009
338.70	0.009
338.91	0.009
339.11	0.009
339.32	0.009
339.53	0.009
339.74	0.009
339.95	0.008
340.16	0.008
340.37	0.008
340.58	0.008
340.79	0.008
341.00	0.008
341.21	0.008
341.41	0.008
341.62	0.008
341.83	0.008
342.04	0.008
342.25	0.008
342.46	0.008
342.67	0.008
342.88	0.008
343.09	0.008
343.30	0.008
343.50	0.008
343.71	0.008
343.92	0.008
344.13	0.008
344.34	0.008
344.55	0.008
344.76	0.008
344.97	0.008
345.18	0.008
345.38	0.008
345.59	0.008
345.80	0.008
346.01	0.008
346.22	0.008
346.43	0.008
346.64	0.008
346.85	0.008
347.06	0.008
347.26	0.008
347.47	0.008
347.68	0.008
347.89	0.008
348.10	0.008
348.31	0.007
348.52	0.008
348.73	0.008
348.93	0.008
349.14	0.007
349.35	0.007
349.56	0.007
349.77	0.007
349.98	0.007
350.19	0.007
350.39	0.007
350.60	0.007
350.81	0.007
351.02	0.007
351.23	0.007
351.44	0.007
351.65	0.007
351.86	0.007
352.06	0.007
352.27	0.007
352.48	0.007
352.69	0.007
352.90	0.007
353.11	0.007
353.31	0.007
353.52	0.007
353.73	0.007
353.94	0.007
354.15	0.007
354.36	0.007
354.57	0.007
354.77	0.007
354.98	0.007
355.19	0.007
355.40	0.007
355.61	0.007
355.82	0.007
356.02	0.007
356.23	0.007
356.44	0.007
356.65	0.007
356.86	0.007
357.07	0.007
357.27	0.007
357.48	0.007
357.69	0.007
357.90	0.007
358.11	0.007
358.32	0.007
358.52	0.007
358.73	0.007
358.94	0.007
359.15	0.007
359.36	0.007
359.56	0.007
359.77	0.007
359.98	0.007
360.19	0.007
360.40	0.007
360.61	0.007
360.81	0.007
361.02	0.007
361.23	0.007
361.44	0.007
361.65	0.007
361.85	0.007
362.06	0.007
362.27	0.007
362.48	0.007
362.69	0.007
362.89	0.007
363.10	0.007
363.31	0.007
363.52	0.007
363.73	0.007
363.93	0.007
364.14	0.007
364.35	0.007
364.56	0.007
364.77	0.007
364.97	0.007
365.18	0.007
365.39	0.007
365.60	0.007
365.81	0.007
366.01	0.007
366.22	0.007
366.43	0.007
366.64	0.007
366.84	0.007
367.05	0.007
367.26	0.007
367.47	0.007
367.68	0.006
367.88	0.007
368.09	0.007
368.30	0.007
368.51	0.007
368.71	0.007
368.92	0.006
369.13	0.006
369.34	0.006
369.55	0.006
369.75	0.006
369.96	0.006
370.17	0.007
370.38	0.007
370.58	0.006
370.79	0.006
371.00	0.006
371.21	0.007
371.41	0.007
371.62	0.006
371.83	0.006
372.04	0.006
372.24	0.006
372.45	0.006
372.66	0.006
372.87	0.006
373.07	0.006
373.28	0.006
373.49	0.006
373.70	0.006
373.90	0.006
374.11	0.006
374.32	0.006
374.53	0.006
374.73	0.006
374.94	0.006
375.15	0.006
375.36	0.006
375.56	0.006
375.77	0.006
375.98	0.006
376.19	0.006
376.39	0.006
376.60	0.006
376.81	0.006
377.02	0.006
377.22	0.006
377.43	0.006
377.64	0.006
377.84	0.006
378.05	0.006
378.26	0.006
378.47	0.006
378.67	0.006
378.88	0.006
379.09	0.006
379.30	0.006
379.50	0.006
379.71	0.006
379.92	0.006
380.12	0.006
380.33	0.006
380.54	0.006
380.75	0.006
380.95	0.006
381.16	0.006
381.37	0.006
381.57	0.006
381.78	0.006
381.99	0.006
382.20	0.005
382.40	0.006
382.61	0.006
382.82	0.005
383.02	0.005
383.23	0.005
383.44	0.006
383.64	0.006
383.85	0.006
384.06	0.006
384.27	0.006
384.47	0.006
384.68	0.006
384.89	0.006
385.09	0.006
385.30	0.006
385.51	0.006
385.71	0.006
385.92	0.006
386.13	0.006
386.33	0.006
386.54	0.006
386.75	0.006
386.95	0.006
387.16	0.006
387.37	0.006
387.58	0.006
387.78	0.006
387.99	0.006
388.20	0.006
388.40	0.006
388.61	0.006
388.82	0.006
389.02	0.006
389.23	0.006
389.44	0.006
389.64	0.006
389.85	0.006
390.06	0.006
390.26	0.006
390.47	0.006
390.68	0.005
390.88	0.006
391.09	0.006
391.30	0.006
391.50	0.006
391.71	0.006
391.92	0.005
392.12	0.006
392.33	0.006
392.53	0.006
392.74	0.006
392.95	0.006
393.15	0.006
393.36	0.006
393.57	0.006
393.77	0.005
393.98	0.005
394.19	0.006
394.39	0.006
394.60	0.005
394.81	0.005
395.01	0.005
395.22	0.005
395.43	0.005
395.63	0.005
395.84	0.005
396.04	0.005
396.25	0.005
396.46	0.005
396.66	0.005
396.87	0.005
397.08	0.005
397.28	0.005
397.49	0.005
397.69	0.005
397.90	0.005
398.11	0.005
398.31	0.005
398.52	0.005
398.73	0.005
398.93	0.005
399.14	0.005
399.34	0.005
399.55	0.005
399.76	0.005
399.96	0.005
400.17	0.005
400.37	0.005
400.58	0.005
400.79	0.005
400.99	0.005
401.20	0.005
401.41	0.005
401.61	0.005
401.82	0.005
402.02	0.005
402.23	0.005
402.44	0.005
402.64	0.005
402.85	0.005
403.05	0.005
403.26	0.005
403.47	0.005
403.67	0.005
403.88	0.005
404.08	0.005
404.29	0.005
404.50	0.005
404.70	0.005
404.91	0.005
405.11	0.005
405.32	0.005
405.52	0.004
405.73	0.005
405.94	0.004
406.14	0.004
406.35	0.004
406.55	0.004
406.76	0.005
406.97	0.005
407.17	0.005
407.38	0.005
407.58	0.005
407.79	0.005
407.99	0.005
408.20	0.005
408.41	0.005
408.61	0.005
408.82	0.005
409.02	0.005
409.23	0.005
409.43	0.005
409.64	0.005
409.84	0.005
410.05	0.005
410.26	0.005
410.46	0.005
410.67	0.005
410.87	0.005
411.08	0.005
411.28	0.005
411.49	0.005
411.69	0.005
411.90	0.005
412.11	0.005
412.31	0.005
412.52	0.005
412.72	0.004
412.93	0.005
413.13	0.005
413.34	0.005
413.54	0.005
413.75	0.005
413.95	0.005
414.16	0.005
414.37	0.005
414.57	0.005
414.78	0.005
414.98	0.005
415.19	0.005
415.39	0.005
415.60	0.005
415.80	0.005
416.01	0.005
416.21	0.005
416.42	0.005
416.62	0.005
416.83	0.005
417.03	0.004
417.24	0.004
417.44	0.004
417.65	0.004
417.86	0.004
418.06	0.004
418.27	0.004
418.47	0.004
418.68	0.004
418.88	0.004
419.09	0.004
419.29	0.004
419.50	0.004
419.70	0.004
419.91	0.004
420.11	0.004
420.32	0.004
420.52	0.004
420.73	0.004
420.93	0.004
421.14	0.004
421.34	0.004
421.55	0.004
421.75	0.004
421.96	0.004
422.16	0.004
422.37	0.004
422.57	0.004
422.78	0.004
422.98	0.004
423.19	0.004
423.39	0.004
423.60	0.004
423.80	0.004
424.01	0.004
424.21	0.005
424.42	0.005
424.62	0.005
424.83	0.005
425.03	0.005
425.23	0.005
425.44	0.004
425.64	0.004
425.85	0.004
426.05	0.004
426.26	0.004
426.46	0.004
426.67	0.004
426.87	0.004
427.08	0.004
427.28	0.004
427.49	0.004
427.69	0.004
427.90	0.004
428.10	0.004
428.31	0.004
428.51	0.004
428.71	0.004
428.92	0.004
429.12	0.004
429.33	0.004
429.53	0.004
429.74	0.004
429.94	0.004
430.15	0.004
430.35	0.004
430.56	0.004
430.76	0.004
430.96	0.004
431.17	0.004
431.37	0.004
431.58	0.004
431.78	0.004
431.99	0.004
432.19	0.004
432.40	0.004
432.60	0.004
432.80	0.004
433.01	0.004
433.21	0.004
433.42	0.004
433.62	0.004
433.83	0.004
434.03	0.004
434.23	0.004
434.44	0.004
434.64	0.004
434.85	0.004
435.05	0.004
435.26	0.004
435.46	0.004
435.66	0.004
435.87	0.004
436.07	0.004
436.28	0.004
436.48	0.004
436.69	0.004
436.89	0.004
437.09	0.004
437.30	0.004
437.50	0.004
437.71	0.004
437.91	0.004
438.11	0.004
438.32	0.004
438.52	0.004
438.73	0.004
438.93	0.004
439.13	0.004
439.34	0.004
439.54	0.004
439.75	0.004
439.95	0.004
440.15	0.004
440.36	0.004
440.56	0.004
440.77	0.004
440.97	0.004
441.17	0.004
441.38	0.004
441.58	0.004
441.79	0.004
441.99	0.004
442.19	0.004
442.40	0.004
442.60	0.004
442.81	0.004
443.01	0.004
443.21	0.004
443.42	0.004
443.62	0.004
443.82	0.004
444.03	0.004
444.23	0.004
444.44	0.004
444.64	0.004
444.84	0.004
445.05	0.004
445.25	0.004
445.45	0.004
445.66	0.004
445.86	0.004
446.06	0.004
446.27	0.004
446.47	0.004
446.68	0.004
446.88	0.004
447.08	0.004
447.29	0.004
447.49	0.004
447.69	0.004
447.90	0.004
448.10	0.004
448.30	0.004
448.51	0.004
448.71	0.003
448.91	0.004
449.12	0.003
449.32	0.003
449.52	0.003
449.73	0.003
449.93	0.004
450.14	0.004
450.34	0.003
450.54	0.003
450.75	0.004
450.95	0.004
451.15	0.004
451.36	0.004
451.56	0.004
451.76	0.004
451.97	0.004
452.17	0.004
452.37	0.004
452.58	0.004
452.78	0.004
452.98	0.004
453.19	0.004
453.39	0.004
453.59	0.003
453.79	0.004
454.00	0.004
454.20	0.004
454.40	0.004
454.61	0.004
454.81	0.004
455.01	0.004
455.22	0.003
455.42	0.003
455.62	0.003
455.83	0.003
456.03	0.003
456.23	0.003
456.44	0.003
456.64	0.004
456.84	0.004
457.04	0.004
457.25	0.004
457.45	0.003
457.65	0.003
457.86	0.004
458.06	0.004
458.26	0.004
458.47	0.004
458.67	0.004
458.87	0.004
459.07	0.004
459.28	0.003
459.48	0.003
459.68	0.003
459.89	0.003
460.09	0.003
460.29	0.003
460.49	0.003
460.70	0.003
460.90	0.003
461.10	0.003
461.31	0.003
461.51	0.004
461.71	0.004
461.91	0.004
462.12	0.004
462.32	0.004
462.52	0.004
462.72	0.004
462.93	0.004
463.13	0.004
463.33	0.004
463.53	0.004
463.74	0.003
463.94	0.003
464.14	0.003
464.35	0.003
464.55	0.003
464.75	0.003
464.95	0.003
465.16	0.003
465.36	0.003
465.56	0.003
465.76	0.004
465.97	0.004
466.17	0.004
466.37	0.004
466.57	0.004
