SpectraSuite Data File
++++++++++++++++++++++++++++++++++++
Date: Mon Jun 15 09:23:26 PDT 2015
User: introlabs
Dark Spectrum Present: Yes
Reference Spectrum Present: Yes
Number of Sampled Component Spectra: 1
Spectrometers: USB4H08886
Integration Time (usec): 44366 (USB4H08886)
Spectra Averaged: 20 (USB4H08886)
Boxcar Smoothing: 5 (USB4H08886)
Correct for Electrical Dark: Yes (USB4H08886)
Strobe/Lamp Enabled: No (USB4H08886)
Correct for Detector Non-linearity: Yes (USB4H08886)
Correct for Stray Light: Yes (USB4H08886)
Number of Pixels in Processed Spectrum: 3648
>>>>>Begin Processed Spectral Data<<<<<
178.14	0.625
178.36	0.625
178.57	0.625
178.79	-0.000
179.01	-0.849
179.22	0.751
179.44	-0.000
179.65	-0.147
179.87	0.675
180.08	1.966
180.30	0.781
180.52	0.834
180.73	0.481
180.95	0.309
181.16	0.109
181.38	0.049
181.59	0.024
181.81	0.010
182.03	0.027
182.24	0.019
182.46	0.025
182.67	0.022
182.89	0.021
183.10	0.022
183.32	0.012
183.54	0.014
183.75	0.017
183.97	0.019
184.18	0.024
184.40	0.018
184.61	0.021
184.83	0.018
185.04	0.015
185.26	0.016
185.48	0.010
185.69	0.006
185.91	0.003
186.12	0.003
186.34	0.008
186.55	0.002
186.77	0.005
186.98	-0.002
187.20	-0.010
187.42	-0.001
187.63	0.004
187.85	0.005
188.06	0.013
188.28	0.014
188.49	0.016
188.71	0.012
188.92	0.013
189.14	-0.003
189.36	0.005
189.57	0.008
189.79	0.000
190.00	-0.003
190.22	-0.008
190.43	-0.006
190.65	-0.013
190.86	-0.003
191.08	0.002
191.29	0.004
191.51	0.014
191.72	0.006
191.94	0.009
192.16	0.008
192.37	0.011
192.59	0.013
192.80	0.013
193.02	0.024
193.23	0.015
193.45	0.003
193.66	0.005
193.88	0.009
194.09	0.009
194.31	0.006
194.52	0.002
194.74	-0.003
194.95	-0.001
195.17	-0.009
195.38	-0.021
195.60	-0.029
195.81	-0.015
196.03	-0.023
196.25	-0.020
196.46	-0.019
196.68	-0.020
196.89	-0.009
197.11	-0.008
197.32	-0.012
197.54	-0.013
197.75	-0.003
197.97	-0.004
198.18	-0.013
198.40	-0.007
198.61	-0.023
198.83	-0.027
199.04	-0.021
199.26	-0.029
199.47	-0.027
199.69	-0.021
199.90	-0.006
200.12	-0.009
200.33	-0.000
200.55	-0.004
200.76	-0.012
200.98	-0.007
201.19	-0.007
201.41	-0.012
201.62	-0.004
201.84	-0.009
202.05	-0.007
202.27	-0.010
202.48	-0.013
202.70	-0.011
202.91	-0.005
203.13	0.002
203.34	-0.000
203.56	0.003
203.77	0.003
203.99	-0.008
204.20	-0.005
204.42	-0.008
204.63	-0.011
204.85	-0.008
205.06	-0.012
205.28	-0.016
205.49	-0.017
205.71	-0.009
205.92	-0.009
206.14	-0.009
206.35	0.001
206.56	0.004
206.78	0.006
206.99	0.006
207.21	0.009
207.42	0.011
207.64	0.014
207.85	0.014
208.07	0.015
208.28	0.017
208.50	0.022
208.71	0.020
208.93	0.017
209.14	0.015
209.36	0.014
209.57	0.014
209.79	0.014
210.00	0.017
210.22	0.023
210.43	0.019
210.64	0.016
210.86	0.003
211.07	0.001
211.29	-0.003
211.50	-0.006
211.72	-0.015
211.93	-0.019
212.15	-0.021
212.36	-0.028
212.58	-0.032
212.79	-0.029
213.01	-0.033
213.22	-0.019
213.43	-0.019
213.65	-0.015
213.86	-0.016
214.08	-0.005
214.29	0.002
214.51	0.001
214.72	0.005
214.94	0.005
215.15	0.005
215.36	0.006
215.58	-0.002
215.79	-0.008
216.01	-0.005
216.22	-0.002
216.44	-0.010
216.65	-0.022
216.87	-0.011
217.08	-0.015
217.29	-0.009
217.51	-0.010
217.72	-0.008
217.94	-0.001
218.15	0.007
218.37	0.004
218.58	-0.003
218.80	0.004
219.01	0.005
219.22	-0.002
219.44	0.000
219.65	-0.005
219.87	0.001
220.08	-0.001
220.30	-0.009
220.51	-0.015
220.72	-0.019
220.94	-0.018
221.15	-0.021
221.37	-0.021
221.58	-0.021
221.79	-0.016
222.01	-0.025
222.22	-0.037
222.44	-0.042
222.65	-0.041
222.87	-0.041
223.08	-0.038
223.29	-0.037
223.51	-0.038
223.72	-0.041
223.94	-0.043
224.15	-0.048
224.36	-0.042
224.58	-0.040
224.79	-0.034
225.01	-0.037
225.22	-0.038
225.44	-0.039
225.65	-0.035
225.86	-0.034
226.08	-0.031
226.29	-0.033
226.51	-0.030
226.72	-0.029
226.93	-0.027
227.15	-0.032
227.36	-0.032
227.58	-0.035
227.79	-0.032
228.00	-0.037
228.22	-0.044
228.43	-0.048
228.65	-0.047
228.86	-0.050
229.07	-0.056
229.29	-0.059
229.50	-0.061
229.72	-0.060
229.93	-0.060
230.14	-0.064
230.36	-0.066
230.57	-0.064
230.78	-0.065
231.00	-0.069
231.21	-0.070
231.43	-0.069
231.64	-0.069
231.85	-0.066
232.07	-0.067
232.28	-0.068
232.50	-0.068
232.71	-0.069
232.92	-0.069
233.14	-0.071
233.35	-0.070
233.56	-0.072
233.78	-0.075
233.99	-0.076
234.21	-0.079
234.42	-0.079
234.63	-0.079
234.85	-0.081
235.06	-0.082
235.27	-0.082
235.49	-0.080
235.70	-0.080
235.91	-0.081
236.13	-0.080
236.34	-0.081
236.56	-0.081
236.77	-0.081
236.98	-0.081
237.20	-0.080
237.41	-0.079
237.62	-0.080
237.84	-0.081
238.05	-0.079
238.26	-0.079
238.48	-0.079
238.69	-0.077
238.91	-0.076
239.12	-0.076
239.33	-0.076
239.55	-0.075
239.76	-0.075
239.97	-0.073
240.19	-0.073
240.40	-0.072
240.61	-0.071
240.83	-0.071
241.04	-0.070
241.25	-0.070
241.47	-0.069
241.68	-0.067
241.89	-0.066
242.11	-0.065
242.32	-0.065
242.53	-0.064
242.75	-0.064
242.96	-0.063
243.17	-0.062
243.39	-0.061
243.60	-0.061
243.81	-0.061
244.03	-0.061
244.24	-0.061
244.45	-0.059
244.67	-0.059
244.88	-0.058
245.09	-0.057
245.31	-0.056
245.52	-0.056
245.73	-0.056
245.95	-0.055
246.16	-0.055
246.37	-0.054
246.59	-0.053
246.80	-0.054
247.01	-0.053
247.23	-0.053
247.44	-0.054
247.65	-0.053
247.87	-0.052
248.08	-0.052
248.29	-0.051
248.51	-0.050
248.72	-0.050
248.93	-0.050
249.15	-0.049
249.36	-0.049
249.57	-0.048
249.78	-0.048
250.00	-0.048
250.21	-0.047
250.42	-0.047
250.64	-0.047
250.85	-0.046
251.06	-0.046
251.28	-0.045
251.49	-0.045
251.70	-0.045
251.92	-0.044
252.13	-0.043
252.34	-0.043
252.55	-0.043
252.77	-0.043
252.98	-0.043
253.19	-0.042
253.41	-0.042
253.62	-0.042
253.83	-0.041
254.05	-0.041
254.26	-0.041
254.47	-0.040
254.68	-0.040
254.90	-0.040
255.11	-0.040
255.32	-0.039
255.54	-0.039
255.75	-0.039
255.96	-0.039
256.17	-0.039
256.39	-0.039
256.60	-0.039
256.81	-0.038
257.03	-0.038
257.24	-0.038
257.45	-0.038
257.66	-0.038
257.88	-0.038
258.09	-0.039
258.30	-0.039
258.51	-0.039
258.73	-0.039
258.94	-0.039
259.15	-0.039
259.37	-0.039
259.58	-0.039
259.79	-0.039
260.00	-0.039
260.22	-0.039
260.43	-0.039
260.64	-0.039
260.85	-0.039
261.07	-0.039
261.28	-0.039
261.49	-0.039
261.71	-0.039
261.92	-0.039
262.13	-0.039
262.34	-0.039
262.56	-0.040
262.77	-0.040
262.98	-0.040
263.19	-0.040
263.41	-0.040
263.62	-0.040
263.83	-0.041
264.04	-0.041
264.26	-0.041
264.47	-0.041
264.68	-0.041
264.89	-0.041
265.11	-0.042
265.32	-0.041
265.53	-0.041
265.74	-0.041
265.96	-0.042
266.17	-0.041
266.38	-0.041
266.59	-0.042
266.81	-0.042
267.02	-0.042
267.23	-0.042
267.44	-0.043
267.65	-0.043
267.87	-0.044
268.08	-0.044
268.29	-0.044
268.50	-0.044
268.72	-0.044
268.93	-0.044
269.14	-0.044
269.35	-0.044
269.57	-0.044
269.78	-0.044
269.99	-0.044
270.20	-0.044
270.41	-0.045
270.63	-0.045
270.84	-0.045
271.05	-0.046
271.26	-0.046
271.48	-0.046
271.69	-0.047
271.90	-0.047
272.11	-0.047
272.32	-0.048
272.54	-0.048
272.75	-0.048
272.96	-0.048
273.17	-0.048
273.39	-0.048
273.60	-0.048
273.81	-0.048
274.02	-0.048
274.23	-0.048
274.45	-0.048
274.66	-0.048
274.87	-0.048
275.08	-0.048
275.29	-0.049
275.51	-0.049
275.72	-0.049
275.93	-0.048
276.14	-0.048
276.35	-0.048
276.57	-0.048
276.78	-0.048
276.99	-0.048
277.20	-0.048
277.41	-0.047
277.63	-0.047
277.84	-0.048
278.05	-0.048
278.26	-0.048
278.47	-0.048
278.69	-0.048
278.90	-0.047
279.11	-0.047
279.32	-0.047
279.53	-0.046
279.74	-0.046
279.96	-0.046
280.17	-0.045
280.38	-0.045
280.59	-0.045
280.80	-0.045
281.02	-0.045
281.23	-0.044
281.44	-0.044
281.65	-0.044
281.86	-0.044
282.07	-0.044
282.29	-0.044
282.50	-0.044
282.71	-0.043
282.92	-0.043
283.13	-0.043
283.35	-0.043
283.56	-0.042
283.77	-0.042
283.98	-0.042
284.19	-0.041
284.40	-0.041
284.62	-0.040
284.83	-0.040
285.04	-0.040
285.25	-0.039
285.46	-0.038
285.67	-0.038
285.88	-0.037
286.10	-0.037
286.31	-0.036
286.52	-0.035
286.73	-0.034
286.94	-0.034
287.15	-0.033
287.37	-0.032
287.58	-0.031
287.79	-0.031
288.00	-0.030
288.21	-0.030
288.42	-0.029
288.63	-0.029
288.85	-0.028
289.06	-0.027
289.27	-0.027
289.48	-0.026
289.69	-0.026
289.90	-0.025
290.11	-0.025
290.33	-0.024
290.54	-0.024
290.75	-0.023
290.96	-0.022
291.17	-0.022
291.38	-0.021
291.59	-0.021
291.81	-0.021
292.02	-0.020
292.23	-0.020
292.44	-0.020
292.65	-0.020
292.86	-0.019
293.07	-0.019
293.28	-0.019
293.50	-0.019
293.71	-0.019
293.92	-0.018
294.13	-0.018
294.34	-0.018
294.55	-0.017
294.76	-0.017
294.97	-0.017
295.19	-0.017
295.40	-0.017
295.61	-0.016
295.82	-0.016
296.03	-0.016
296.24	-0.016
296.45	-0.016
296.66	-0.016
296.87	-0.016
297.09	-0.016
297.30	-0.016
297.51	-0.016
297.72	-0.016
297.93	-0.016
298.14	-0.015
298.35	-0.015
298.56	-0.015
298.77	-0.015
298.99	-0.015
299.20	-0.015
299.41	-0.014
299.62	-0.014
299.83	-0.014
300.04	-0.014
300.25	-0.014
300.46	-0.014
300.67	-0.014
300.88	-0.014
301.10	-0.014
301.31	-0.014
301.52	-0.014
301.73	-0.014
301.94	-0.014
302.15	-0.014
302.36	-0.014
302.57	-0.014
302.78	-0.014
302.99	-0.013
303.20	-0.013
303.41	-0.013
303.63	-0.013
303.84	-0.013
304.05	-0.013
304.26	-0.013
304.47	-0.013
304.68	-0.013
304.89	-0.013
305.10	-0.013
305.31	-0.013
305.52	-0.013
305.73	-0.013
305.94	-0.013
306.15	-0.012
306.37	-0.012
306.58	-0.012
306.79	-0.012
307.00	-0.012
307.21	-0.012
307.42	-0.012
307.63	-0.012
307.84	-0.011
308.05	-0.011
308.26	-0.011
308.47	-0.011
308.68	-0.011
308.89	-0.011
309.10	-0.011
309.31	-0.011
309.52	-0.011
309.73	-0.011
309.95	-0.011
310.16	-0.011
310.37	-0.011
310.58	-0.011
310.79	-0.011
311.00	-0.011
311.21	-0.011
311.42	-0.011
311.63	-0.011
311.84	-0.011
312.05	-0.011
312.26	-0.011
312.47	-0.011
312.68	-0.011
312.89	-0.011
313.10	-0.010
313.31	-0.010
313.52	-0.010
313.73	-0.010
313.94	-0.010
314.15	-0.010
314.36	-0.010
314.57	-0.010
314.78	-0.010
314.99	-0.010
315.21	-0.010
315.42	-0.010
315.63	-0.009
315.84	-0.010
316.05	-0.010
316.26	-0.009
316.47	-0.009
316.68	-0.009
316.89	-0.009
317.10	-0.009
317.31	-0.009
317.52	-0.009
317.73	-0.009
317.94	-0.009
318.15	-0.009
318.36	-0.009
318.57	-0.009
318.78	-0.009
318.99	-0.009
319.20	-0.009
319.41	-0.008
319.62	-0.009
319.83	-0.009
320.04	-0.009
320.25	-0.009
320.46	-0.009
320.67	-0.009
320.88	-0.009
321.09	-0.009
321.30	-0.009
321.51	-0.009
321.72	-0.009
321.93	-0.009
322.14	-0.009
322.35	-0.009
322.56	-0.009
322.77	-0.008
322.98	-0.008
323.19	-0.008
323.40	-0.008
323.61	-0.008
323.82	-0.008
324.03	-0.008
324.24	-0.008
324.45	-0.008
324.66	-0.008
324.87	-0.008
325.08	-0.008
325.29	-0.008
325.50	-0.008
325.71	-0.008
325.92	-0.008
326.13	-0.008
326.34	-0.008
326.55	-0.008
326.76	-0.008
326.97	-0.008
327.18	-0.008
327.39	-0.008
327.60	-0.008
327.80	-0.008
328.01	-0.008
328.22	-0.008
328.43	-0.008
328.64	-0.007
328.85	-0.008
329.06	-0.008
329.27	-0.008
329.48	-0.008
329.69	-0.008
329.90	-0.007
330.11	-0.007
330.32	-0.007
330.53	-0.008
330.74	-0.008
330.95	-0.008
331.16	-0.008
331.37	-0.007
331.58	-0.007
331.79	-0.007
332.00	-0.008
332.21	-0.008
332.42	-0.008
332.63	-0.008
332.83	-0.007
333.04	-0.008
333.25	-0.007
333.46	-0.007
333.67	-0.007
333.88	-0.007
334.09	-0.007
334.30	-0.007
334.51	-0.007
334.72	-0.007
334.93	-0.007
335.14	-0.007
335.35	-0.007
335.56	-0.007
335.77	-0.007
335.98	-0.007
336.18	-0.007
336.39	-0.007
336.60	-0.007
336.81	-0.007
337.02	-0.007
337.23	-0.007
337.44	-0.008
337.65	-0.007
337.86	-0.008
338.07	-0.008
338.28	-0.008
338.49	-0.008
338.70	-0.008
338.91	-0.008
339.11	-0.008
339.32	-0.008
339.53	-0.008
339.74	-0.008
339.95	-0.008
340.16	-0.008
340.37	-0.008
340.58	-0.008
340.79	-0.008
341.00	-0.008
341.21	-0.008
341.41	-0.008
341.62	-0.008
341.83	-0.008
342.04	-0.009
342.25	-0.009
342.46	-0.009
342.67	-0.009
342.88	-0.009
343.09	-0.009
343.30	-0.009
343.50	-0.009
343.71	-0.009
343.92	-0.008
344.13	-0.008
344.34	-0.008
344.55	-0.008
344.76	-0.009
344.97	-0.009
345.18	-0.009
345.38	-0.009
345.59	-0.009
345.80	-0.009
346.01	-0.009
346.22	-0.009
346.43	-0.009
346.64	-0.009
346.85	-0.009
347.06	-0.009
347.26	-0.009
347.47	-0.009
347.68	-0.009
347.89	-0.009
348.10	-0.009
348.31	-0.009
348.52	-0.009
348.73	-0.009
348.93	-0.009
349.14	-0.009
349.35	-0.009
349.56	-0.009
349.77	-0.009
349.98	-0.009
350.19	-0.009
350.39	-0.009
350.60	-0.009
350.81	-0.009
351.02	-0.009
351.23	-0.009
351.44	-0.009
351.65	-0.009
351.86	-0.009
352.06	-0.009
352.27	-0.009
352.48	-0.009
352.69	-0.009
352.90	-0.009
353.11	-0.009
353.31	-0.009
353.52	-0.009
353.73	-0.009
353.94	-0.009
354.15	-0.009
354.36	-0.009
354.57	-0.009
354.77	-0.009
354.98	-0.009
355.19	-0.009
355.40	-0.009
355.61	-0.009
355.82	-0.009
356.02	-0.009
356.23	-0.009
356.44	-0.009
356.65	-0.009
356.86	-0.009
357.07	-0.009
357.27	-0.009
357.48	-0.009
357.69	-0.009
357.90	-0.009
358.11	-0.009
358.32	-0.009
358.52	-0.009
358.73	-0.009
358.94	-0.009
359.15	-0.009
359.36	-0.009
359.56	-0.009
359.77	-0.009
359.98	-0.009
360.19	-0.009
360.40	-0.009
360.61	-0.009
360.81	-0.009
361.02	-0.009
361.23	-0.009
361.44	-0.009
361.65	-0.009
361.85	-0.009
362.06	-0.009
362.27	-0.009
362.48	-0.009
362.69	-0.009
362.89	-0.009
363.10	-0.009
363.31	-0.009
363.52	-0.009
363.73	-0.009
363.93	-0.009
364.14	-0.008
364.35	-0.009
364.56	-0.009
364.77	-0.009
364.97	-0.009
365.18	-0.009
365.39	-0.009
365.60	-0.009
365.81	-0.009
366.01	-0.009
366.22	-0.009
366.43	-0.009
366.64	-0.009
366.84	-0.009
367.05	-0.009
367.26	-0.009
367.47	-0.009
367.68	-0.009
367.88	-0.009
368.09	-0.008
368.30	-0.008
368.51	-0.008
368.71	-0.008
368.92	-0.008
369.13	-0.008
369.34	-0.008
369.55	-0.008
369.75	-0.008
369.96	-0.008
370.17	-0.008
370.38	-0.008
370.58	-0.008
370.79	-0.008
371.00	-0.008
371.21	-0.008
371.41	-0.008
371.62	-0.008
371.83	-0.008
372.04	-0.008
372.24	-0.008
372.45	-0.009
372.66	-0.008
372.87	-0.008
373.07	-0.008
373.28	-0.008
373.49	-0.008
373.70	-0.008
373.90	-0.008
374.11	-0.008
374.32	-0.008
374.53	-0.008
374.73	-0.008
374.94	-0.008
375.15	-0.008
375.36	-0.008
375.56	-0.008
375.77	-0.008
375.98	-0.008
376.19	-0.008
376.39	-0.008
376.60	-0.009
376.81	-0.008
377.02	-0.009
377.22	-0.009
377.43	-0.009
377.64	-0.009
377.84	-0.009
378.05	-0.008
378.26	-0.009
378.47	-0.009
378.67	-0.008
378.88	-0.008
379.09	-0.008
379.30	-0.008
379.50	-0.009
379.71	-0.009
379.92	-0.009
380.12	-0.009
380.33	-0.009
380.54	-0.008
380.75	-0.009
380.95	-0.009
381.16	-0.009
381.37	-0.008
381.57	-0.008
381.78	-0.008
381.99	-0.008
382.20	-0.008
382.40	-0.008
382.61	-0.008
382.82	-0.008
383.02	-0.008
383.23	-0.008
383.44	-0.008
383.64	-0.008
383.85	-0.008
384.06	-0.008
384.27	-0.008
384.47	-0.008
384.68	-0.008
384.89	-0.008
385.09	-0.008
385.30	-0.008
385.51	-0.008
385.71	-0.009
385.92	-0.009
386.13	-0.009
386.33	-0.009
386.54	-0.009
386.75	-0.009
386.95	-0.009
387.16	-0.009
387.37	-0.009
387.58	-0.009
387.78	-0.009
387.99	-0.008
388.20	-0.008
388.40	-0.008
388.61	-0.008
388.82	-0.008
389.02	-0.008
389.23	-0.008
389.44	-0.008
389.64	-0.008
389.85	-0.008
390.06	-0.008
390.26	-0.008
390.47	-0.008
390.68	-0.009
390.88	-0.009
391.09	-0.009
391.30	-0.008
391.50	-0.008
391.71	-0.008
391.92	-0.008
392.12	-0.008
392.33	-0.008
392.53	-0.008
392.74	-0.008
392.95	-0.008
393.15	-0.008
393.36	-0.008
393.57	-0.008
393.77	-0.008
393.98	-0.008
394.19	-0.008
394.39	-0.008
394.60	-0.008
394.81	-0.008
395.01	-0.008
395.22	-0.008
395.43	-0.008
395.63	-0.008
395.84	-0.008
396.04	-0.008
396.25	-0.008
396.46	-0.009
396.66	-0.009
396.87	-0.009
397.08	-0.008
397.28	-0.008
397.49	-0.008
397.69	-0.008
397.90	-0.008
398.11	-0.008
398.31	-0.008
398.52	-0.008
398.73	-0.008
398.93	-0.008
399.14	-0.008
399.34	-0.008
399.55	-0.008
399.76	-0.008
399.96	-0.008
400.17	-0.008
400.37	-0.008
400.58	-0.008
400.79	-0.008
400.99	-0.008
401.20	-0.008
401.41	-0.008
401.61	-0.008
401.82	-0.008
402.02	-0.008
402.23	-0.008
402.44	-0.008
402.64	-0.008
402.85	-0.008
403.05	-0.008
403.26	-0.008
403.47	-0.008
403.67	-0.008
403.88	-0.008
404.08	-0.008
404.29	-0.008
404.50	-0.008
404.70	-0.008
404.91	-0.008
405.11	-0.008
405.32	-0.008
405.52	-0.008
405.73	-0.008
405.94	-0.008
406.14	-0.008
406.35	-0.009
406.55	-0.008
406.76	-0.008
406.97	-0.009
407.17	-0.008
407.38	-0.008
407.58	-0.008
407.79	-0.008
407.99	-0.008
408.20	-0.008
408.41	-0.008
408.61	-0.008
408.82	-0.008
409.02	-0.008
409.23	-0.008
409.43	-0.008
409.64	-0.008
409.84	-0.008
410.05	-0.008
410.26	-0.008
410.46	-0.008
410.67	-0.008
410.87	-0.008
411.08	-0.008
411.28	-0.008
411.49	-0.008
411.69	-0.008
411.90	-0.008
412.11	-0.008
412.31	-0.008
412.52	-0.008
412.72	-0.008
412.93	-0.008
413.13	-0.008
413.34	-0.008
413.54	-0.008
413.75	-0.008
413.95	-0.008
414.16	-0.008
414.37	-0.008
414.57	-0.008
414.78	-0.008
414.98	-0.008
415.19	-0.008
415.39	-0.008
415.60	-0.008
415.80	-0.008
416.01	-0.008
416.21	-0.008
416.42	-0.008
416.62	-0.008
416.83	-0.008
417.03	-0.008
417.24	-0.008
417.44	-0.008
417.65	-0.008
417.86	-0.008
418.06	-0.008
418.27	-0.008
418.47	-0.009
418.68	-0.009
418.88	-0.009
419.09	-0.009
419.29	-0.009
419.50	-0.009
419.70	-0.009
419.91	-0.009
420.11	-0.009
420.32	-0.009
420.52	-0.009
420.73	-0.009
420.93	-0.009
421.14	-0.009
421.34	-0.009
421.55	-0.009
421.75	-0.009
421.96	-0.009
422.16	-0.009
422.37	-0.009
422.57	-0.009
422.78	-0.009
422.98	-0.009
423.19	-0.009
423.39	-0.008
423.60	-0.009
423.80	-0.008
424.01	-0.008
424.21	-0.008
424.42	-0.008
424.62	-0.008
424.83	-0.008
425.03	-0.008
425.23	-0.008
425.44	-0.008
425.64	-0.008
425.85	-0.008
426.05	-0.008
426.26	-0.008
426.46	-0.008
426.67	-0.008
426.87	-0.008
427.08	-0.008
427.28	-0.009
427.49	-0.009
427.69	-0.009
427.90	-0.009
428.10	-0.009
428.31	-0.009
428.51	-0.009
428.71	-0.009
428.92	-0.009
429.12	-0.009
429.33	-0.009
429.53	-0.009
429.74	-0.009
429.94	-0.009
430.15	-0.009
430.35	-0.008
430.56	-0.008
430.76	-0.008
430.96	-0.008
431.17	-0.008
431.37	-0.008
431.58	-0.008
431.78	-0.008
431.99	-0.008
432.19	-0.007
432.40	-0.007
432.60	-0.007
432.80	-0.008
433.01	-0.008
433.21	-0.008
433.42	-0.008
433.62	-0.008
433.83	-0.008
434.03	-0.008
434.23	-0.008
434.44	-0.008
434.64	-0.008
434.85	-0.008
435.05	-0.008
435.26	-0.008
435.46	-0.008
435.66	-0.008
435.87	-0.008
436.07	-0.008
436.28	-0.008
436.48	-0.008
436.69	-0.008
436.89	-0.008
437.09	-0.008
437.30	-0.008
437.50	-0.008
437.71	-0.008
437.91	-0.008
438.11	-0.008
438.32	-0.008
438.52	-0.008
438.73	-0.008
438.93	-0.008
439.13	-0.008
439.34	-0.008
439.54	-0.008
439.75	-0.008
439.95	-0.008
440.15	-0.008
440.36	-0.008
440.56	-0.008
440.77	-0.008
440.97	-0.008
441.17	-0.008
441.38	-0.008
441.58	-0.008
441.79	-0.008
441.99	-0.008
442.19	-0.008
442.40	-0.008
442.60	-0.008
442.81	-0.008
443.01	-0.008
443.21	-0.008
443.42	-0.008
443.62	-0.008
443.82	-0.008
444.03	-0.008
444.23	-0.008
444.44	-0.008
444.64	-0.008
444.84	-0.008
445.05	-0.008
445.25	-0.008
445.45	-0.008
445.66	-0.008
445.86	-0.008
446.06	-0.008
446.27	-0.008
446.47	-0.008
446.68	-0.008
446.88	-0.008
447.08	-0.008
447.29	-0.008
447.49	-0.008
447.69	-0.008
447.90	-0.008
448.10	-0.008
448.30	-0.008
448.51	-0.008
448.71	-0.008
448.91	-0.008
449.12	-0.008
449.32	-0.008
449.52	-0.008
449.73	-0.008
449.93	-0.007
450.14	-0.008
450.34	-0.008
450.54	-0.008
