SpectraSuite Data File
++++++++++++++++++++++++++++++++++++
Date: Mon Jun 15 06:20:05 PDT 2015
User: introlabs
Dark Spectrum Present: Yes
Reference Spectrum Present: Yes
Number of Sampled Component Spectra: 1
Spectrometers: USB4H08886
Integration Time (usec): 44366 (USB4H08886)
Spectra Averaged: 20 (USB4H08886)
Boxcar Smoothing: 5 (USB4H08886)
Correct for Electrical Dark: Yes (USB4H08886)
Strobe/Lamp Enabled: No (USB4H08886)
Correct for Detector Non-linearity: Yes (USB4H08886)
Correct for Stray Light: Yes (USB4H08886)
Number of Pixels in Processed Spectrum: 3648
>>>>>Begin Processed Spectral Data<<<<<
178.14	-0.000
178.36	-0.000
178.57	-0.000
178.79	-2.620
179.01	-0.192
179.22	-0.986
179.44	-0.290
179.65	-0.209
179.87	-0.555
180.08	-0.131
180.30	-0.235
180.52	-0.646
180.73	-0.378
180.95	-0.177
181.16	-0.065
181.38	-0.025
181.59	-0.015
181.81	0.001
182.03	0.013
182.24	0.024
182.46	0.013
182.67	0.010
182.89	0.002
183.10	-0.004
183.32	-0.004
183.54	-0.007
183.75	-0.016
183.97	-0.010
184.18	-0.012
184.40	-0.010
184.61	-0.010
184.83	-0.010
185.04	-0.013
185.26	0.004
185.48	0.003
185.69	0.001
185.91	-0.002
186.12	0.005
186.34	0.003
186.55	-0.007
186.77	-0.012
186.98	-0.015
187.20	-0.024
187.42	-0.022
187.63	-0.030
187.85	-0.032
188.06	-0.036
188.28	-0.032
188.49	-0.029
188.71	-0.041
188.92	-0.039
189.14	-0.039
189.36	-0.022
189.57	-0.018
189.79	-0.009
190.00	-0.002
190.22	0.003
190.43	0.006
190.65	0.006
190.86	0.007
191.08	0.013
191.29	0.010
191.51	0.011
191.72	0.002
191.94	0.011
192.16	-0.006
192.37	-0.013
192.59	-0.015
192.80	-0.016
193.02	-0.013
193.23	-0.004
193.45	-0.001
193.66	0.007
193.88	0.005
194.09	0.005
194.31	0.002
194.52	0.010
194.74	0.011
194.95	0.013
195.17	0.018
195.38	0.020
195.60	0.014
195.81	0.008
196.03	0.003
196.25	0.006
196.46	0.002
196.68	0.003
196.89	0.003
197.11	0.008
197.32	0.007
197.54	-0.007
197.75	-0.004
197.97	-0.003
198.18	0.000
198.40	0.006
198.61	0.005
198.83	-0.002
199.04	-0.013
199.26	-0.011
199.47	-0.011
199.69	-0.014
199.90	-0.009
200.12	-0.010
200.33	-0.019
200.55	-0.023
200.76	-0.032
200.98	-0.036
201.19	-0.020
201.41	-0.010
201.62	-0.011
201.84	-0.014
202.05	-0.015
202.27	-0.015
202.48	-0.023
202.70	-0.018
202.91	-0.021
203.13	-0.004
203.34	-0.004
203.56	-0.011
203.77	-0.015
203.99	-0.020
204.20	-0.015
204.42	-0.009
204.63	-0.001
204.85	0.001
205.06	-0.003
205.28	-0.001
205.49	-0.008
205.71	-0.004
205.92	-0.007
206.14	-0.005
206.35	0.001
206.56	-0.003
206.78	-0.004
206.99	-0.009
207.21	-0.004
207.42	0.001
207.64	0.003
207.85	0.002
208.07	0.003
208.28	0.008
208.50	0.003
208.71	-0.002
208.93	-0.006
209.14	-0.013
209.36	-0.011
209.57	-0.014
209.79	-0.013
210.00	-0.008
210.22	-0.010
210.43	-0.007
210.64	-0.005
210.86	0.002
211.07	0.006
211.29	0.013
211.50	0.018
211.72	0.019
211.93	0.017
212.15	0.012
212.36	0.011
212.58	0.010
212.79	0.013
213.01	0.005
213.22	0.002
213.43	0.001
213.65	-0.003
213.86	-0.007
214.08	-0.014
214.29	-0.018
214.51	-0.022
214.72	-0.023
214.94	-0.019
215.15	-0.021
215.36	-0.019
215.58	-0.011
215.79	-0.014
216.01	-0.023
216.22	-0.014
216.44	-0.013
216.65	-0.003
216.87	0.012
217.08	0.009
217.29	0.014
217.51	0.008
217.72	0.011
217.94	0.008
218.15	0.009
218.37	0.018
218.58	0.015
218.80	0.019
219.01	0.013
219.22	0.002
219.44	0.004
219.65	-0.008
219.87	-0.007
220.08	0.001
220.30	-0.005
220.51	-0.003
220.72	0.002
220.94	0.001
221.15	0.002
221.37	0.006
221.58	0.008
221.79	0.004
222.01	0.006
222.22	0.008
222.44	0.001
222.65	0.007
222.87	0.005
223.08	-0.006
223.29	-0.008
223.51	-0.012
223.72	-0.013
223.94	-0.017
224.15	-0.022
224.36	-0.019
224.58	-0.020
224.79	-0.022
225.01	-0.027
225.22	-0.025
225.44	-0.023
225.65	-0.016
225.86	-0.016
226.08	-0.016
226.29	-0.012
226.51	-0.006
226.72	-0.007
226.93	-0.007
227.15	-0.010
227.36	-0.006
227.58	-0.003
227.79	-0.005
228.00	-0.011
228.22	-0.017
228.43	-0.017
228.65	-0.020
228.86	-0.023
229.07	-0.027
229.29	-0.028
229.50	-0.030
229.72	-0.036
229.93	-0.040
230.14	-0.037
230.36	-0.035
230.57	-0.030
230.78	-0.032
231.00	-0.032
231.21	-0.030
231.43	-0.025
231.64	-0.025
231.85	-0.025
232.07	-0.022
232.28	-0.023
232.50	-0.023
232.71	-0.022
232.92	-0.022
233.14	-0.023
233.35	-0.024
233.56	-0.028
233.78	-0.028
233.99	-0.030
234.21	-0.025
234.42	-0.023
234.63	-0.022
234.85	-0.022
235.06	-0.026
235.27	-0.026
235.49	-0.026
235.70	-0.026
235.91	-0.024
236.13	-0.027
236.34	-0.026
236.56	-0.027
236.77	-0.028
236.98	-0.028
237.20	-0.030
237.41	-0.026
237.62	-0.026
237.84	-0.027
238.05	-0.026
238.26	-0.025
238.48	-0.025
238.69	-0.024
238.91	-0.023
239.12	-0.022
239.33	-0.021
239.55	-0.021
239.76	-0.021
239.97	-0.019
240.19	-0.018
240.40	-0.019
240.61	-0.018
240.83	-0.016
241.04	-0.016
241.25	-0.016
241.47	-0.017
241.68	-0.016
241.89	-0.016
242.11	-0.016
242.32	-0.017
242.53	-0.016
242.75	-0.016
242.96	-0.016
243.17	-0.017
243.39	-0.016
243.60	-0.016
243.81	-0.015
244.03	-0.015
244.24	-0.014
244.45	-0.014
244.67	-0.014
244.88	-0.014
245.09	-0.014
245.31	-0.013
245.52	-0.012
245.73	-0.012
245.95	-0.012
246.16	-0.011
246.37	-0.011
246.59	-0.011
246.80	-0.011
247.01	-0.010
247.23	-0.010
247.44	-0.010
247.65	-0.010
247.87	-0.010
248.08	-0.011
248.29	-0.011
248.51	-0.012
248.72	-0.011
248.93	-0.010
249.15	-0.010
249.36	-0.010
249.57	-0.010
249.78	-0.010
250.00	-0.010
250.21	-0.009
250.42	-0.008
250.64	-0.009
250.85	-0.008
251.06	-0.008
251.28	-0.008
251.49	-0.008
251.70	-0.007
251.92	-0.007
252.13	-0.007
252.34	-0.007
252.55	-0.007
252.77	-0.007
252.98	-0.007
253.19	-0.007
253.41	-0.007
253.62	-0.007
253.83	-0.008
254.05	-0.008
254.26	-0.008
254.47	-0.008
254.68	-0.008
254.90	-0.008
255.11	-0.008
255.32	-0.008
255.54	-0.007
255.75	-0.007
255.96	-0.007
256.17	-0.007
256.39	-0.007
256.60	-0.007
256.81	-0.007
257.03	-0.007
257.24	-0.007
257.45	-0.007
257.66	-0.007
257.88	-0.007
258.09	-0.007
258.30	-0.006
258.51	-0.006
258.73	-0.007
258.94	-0.006
259.15	-0.006
259.37	-0.006
259.58	-0.006
259.79	-0.006
260.00	-0.006
260.22	-0.006
260.43	-0.006
260.64	-0.007
260.85	-0.007
261.07	-0.007
261.28	-0.006
261.49	-0.006
261.71	-0.006
261.92	-0.006
262.13	-0.006
262.34	-0.006
262.56	-0.006
262.77	-0.006
262.98	-0.006
263.19	-0.006
263.41	-0.007
263.62	-0.007
263.83	-0.008
264.04	-0.008
264.26	-0.008
264.47	-0.008
264.68	-0.009
264.89	-0.009
265.11	-0.008
265.32	-0.009
265.53	-0.008
265.74	-0.008
265.96	-0.008
266.17	-0.008
266.38	-0.008
266.59	-0.009
266.81	-0.009
267.02	-0.009
267.23	-0.009
267.44	-0.009
267.65	-0.009
267.87	-0.010
268.08	-0.010
268.29	-0.010
268.50	-0.010
268.72	-0.010
268.93	-0.010
269.14	-0.010
269.35	-0.010
269.57	-0.011
269.78	-0.011
269.99	-0.011
270.20	-0.011
270.41	-0.011
270.63	-0.011
270.84	-0.011
271.05	-0.011
271.26	-0.012
271.48	-0.012
271.69	-0.012
271.90	-0.012
272.11	-0.013
272.32	-0.012
272.54	-0.012
272.75	-0.013
272.96	-0.013
273.17	-0.013
273.39	-0.013
273.60	-0.013
273.81	-0.013
274.02	-0.013
274.23	-0.013
274.45	-0.013
274.66	-0.014
274.87	-0.014
275.08	-0.014
275.29	-0.014
275.51	-0.014
275.72	-0.014
275.93	-0.014
276.14	-0.014
276.35	-0.014
276.57	-0.014
276.78	-0.014
276.99	-0.014
277.20	-0.014
277.41	-0.014
277.63	-0.014
277.84	-0.014
278.05	-0.014
278.26	-0.014
278.47	-0.014
278.69	-0.014
278.90	-0.013
279.11	-0.013
279.32	-0.013
279.53	-0.013
279.74	-0.013
279.96	-0.013
280.17	-0.013
280.38	-0.013
280.59	-0.013
280.80	-0.013
281.02	-0.013
281.23	-0.013
281.44	-0.013
281.65	-0.013
281.86	-0.013
282.07	-0.013
282.29	-0.012
282.50	-0.012
282.71	-0.012
282.92	-0.012
283.13	-0.012
283.35	-0.012
283.56	-0.011
283.77	-0.011
283.98	-0.011
284.19	-0.011
284.40	-0.011
284.62	-0.011
284.83	-0.011
285.04	-0.010
285.25	-0.010
285.46	-0.010
285.67	-0.009
285.88	-0.009
286.10	-0.009
286.31	-0.009
286.52	-0.009
286.73	-0.008
286.94	-0.008
287.15	-0.008
287.37	-0.007
287.58	-0.007
287.79	-0.007
288.00	-0.007
288.21	-0.007
288.42	-0.006
288.63	-0.006
288.85	-0.005
289.06	-0.005
289.27	-0.005
289.48	-0.004
289.69	-0.004
289.90	-0.004
290.11	-0.003
290.33	-0.003
290.54	-0.003
290.75	-0.003
290.96	-0.003
291.17	-0.003
291.38	-0.002
291.59	-0.002
291.81	-0.002
292.02	-0.002
292.23	-0.002
292.44	-0.002
292.65	-0.002
292.86	-0.002
293.07	-0.001
293.28	-0.001
293.50	-0.001
293.71	-0.001
293.92	-0.001
294.13	-0.001
294.34	-0.001
294.55	-0.001
294.76	-0.001
294.97	-0.001
295.19	-0.001
295.40	-0.001
295.61	-0.000
295.82	-0.000
296.03	-0.000
296.24	-0.000
296.45	-0.000
296.66	-0.000
296.87	-0.000
297.09	-0.000
297.30	-0.000
297.51	-0.000
297.72	-0.000
297.93	-0.000
298.14	-0.001
298.35	-0.001
298.56	-0.001
298.77	-0.001
298.99	-0.001
299.20	-0.001
299.41	-0.001
299.62	-0.001
299.83	-0.001
300.04	-0.001
300.25	-0.001
300.46	-0.001
300.67	-0.001
300.88	-0.001
301.10	-0.001
301.31	-0.001
301.52	-0.001
301.73	-0.001
301.94	-0.001
302.15	-0.001
302.36	-0.001
302.57	-0.001
302.78	-0.001
302.99	-0.001
303.20	-0.001
303.41	-0.001
303.63	-0.001
303.84	-0.001
304.05	-0.001
304.26	-0.001
304.47	-0.001
304.68	-0.001
304.89	-0.001
305.10	-0.001
305.31	-0.001
305.52	-0.001
305.73	-0.001
305.94	-0.001
306.15	-0.001
306.37	-0.001
306.58	-0.001
306.79	-0.001
307.00	-0.001
307.21	-0.001
307.42	-0.000
307.63	-0.001
307.84	-0.001
308.05	-0.001
308.26	-0.001
308.47	-0.001
308.68	-0.001
308.89	-0.001
309.10	-0.001
309.31	-0.001
309.52	-0.001
309.73	-0.001
309.95	-0.001
310.16	-0.001
310.37	-0.000
310.58	-0.001
310.79	-0.001
311.00	-0.001
311.21	-0.001
311.42	-0.001
311.63	-0.001
311.84	-0.001
312.05	-0.001
312.26	-0.001
312.47	-0.001
312.68	-0.001
312.89	-0.001
313.10	-0.001
313.31	-0.001
313.52	-0.001
313.73	-0.001
313.94	-0.001
314.15	-0.000
314.36	-0.000
314.57	-0.000
314.78	-0.000
314.99	-0.001
315.21	-0.001
315.42	-0.001
315.63	-0.001
315.84	-0.001
316.05	-0.001
316.26	-0.001
316.47	-0.001
316.68	-0.001
316.89	-0.001
317.10	-0.001
317.31	-0.001
317.52	-0.001
317.73	-0.001
317.94	-0.001
318.15	-0.001
318.36	-0.001
318.57	-0.001
318.78	-0.001
318.99	-0.001
319.20	-0.001
319.41	-0.001
319.62	-0.001
319.83	-0.001
320.04	-0.001
320.25	-0.001
320.46	-0.001
320.67	-0.001
320.88	-0.001
321.09	-0.001
321.30	-0.001
321.51	-0.001
321.72	-0.001
321.93	-0.001
322.14	-0.001
322.35	-0.001
322.56	-0.001
322.77	-0.001
322.98	-0.001
323.19	-0.001
323.40	-0.001
323.61	-0.001
323.82	-0.001
324.03	-0.001
324.24	-0.001
324.45	-0.001
324.66	-0.001
324.87	-0.001
325.08	-0.001
325.29	-0.001
325.50	-0.001
325.71	-0.001
325.92	-0.001
326.13	-0.001
326.34	-0.001
326.55	-0.001
326.76	-0.001
326.97	-0.001
327.18	-0.001
327.39	-0.001
327.60	-0.001
327.80	-0.001
328.01	-0.000
328.22	-0.000
328.43	-0.000
328.64	-0.000
328.85	-0.000
329.06	-0.000
329.27	-0.000
329.48	-0.000
329.69	-0.000
329.90	-0.000
330.11	-0.000
330.32	-0.000
330.53	-0.000
330.74	-0.000
330.95	-0.000
331.16	-0.001
331.37	-0.001
331.58	-0.001
331.79	-0.000
332.00	-0.000
332.21	-0.000
332.42	-0.000
332.63	-0.000
332.83	-0.000
333.04	-0.000
333.25	-0.000
333.46	-0.000
333.67	-0.000
333.88	-0.000
334.09	-0.000
334.30	-0.000
334.51	-0.000
334.72	-0.000
334.93	-0.000
335.14	-0.000
335.35	-0.000
335.56	-0.000
335.77	-0.000
335.98	-0.000
336.18	-0.000
336.39	-0.000
336.60	-0.000
336.81	-0.000
337.02	-0.000
337.23	-0.000
337.44	-0.000
337.65	-0.000
337.86	-0.000
338.07	-0.000
338.28	-0.000
338.49	-0.000
338.70	-0.000
338.91	-0.000
339.11	-0.000
339.32	-0.000
339.53	-0.000
339.74	-0.000
339.95	0.000
340.16	-0.000
340.37	-0.000
340.58	0.000
340.79	0.000
341.00	-0.000
341.21	-0.000
341.41	-0.000
341.62	-0.000
341.83	-0.000
342.04	-0.000
342.25	-0.000
342.46	-0.000
342.67	-0.000
342.88	-0.000
343.09	-0.000
343.30	-0.000
343.50	-0.000
343.71	-0.000
343.92	-0.000
344.13	-0.000
344.34	-0.000
344.55	-0.000
344.76	-0.000
344.97	-0.000
345.18	-0.000
345.38	-0.000
345.59	-0.000
345.80	-0.000
346.01	0.000
346.22	0.000
346.43	-0.000
346.64	-0.000
346.85	-0.000
347.06	-0.000
347.26	-0.000
347.47	-0.000
347.68	-0.000
347.89	-0.000
348.10	-0.000
348.31	-0.000
348.52	-0.000
348.73	-0.000
348.93	-0.000
349.14	-0.000
349.35	-0.000
349.56	-0.000
349.77	-0.000
349.98	-0.000
350.19	-0.000
350.39	-0.000
350.60	0.000
350.81	0.000
351.02	0.000
351.23	0.000
351.44	0.000
351.65	0.000
351.86	0.000
352.06	0.000
352.27	0.000
352.48	0.000
352.69	0.000
352.90	0.000
353.11	0.000
353.31	0.000
353.52	0.000
353.73	0.000
353.94	0.000
354.15	0.000
354.36	0.000
354.57	0.000
354.77	0.000
354.98	0.000
355.19	0.000
355.40	0.000
355.61	0.000
355.82	0.000
356.02	0.000
356.23	0.000
356.44	0.000
356.65	0.000
356.86	0.000
357.07	0.000
357.27	0.000
357.48	0.000
357.69	0.001
357.90	0.001
358.11	0.001
358.32	0.001
358.52	0.001
358.73	0.001
358.94	0.000
359.15	0.001
359.36	0.001
359.56	0.001
359.77	0.000
359.98	0.000
360.19	0.000
360.40	0.000
360.61	0.000
360.81	0.000
361.02	0.000
361.23	0.000
361.44	0.000
361.65	0.000
361.85	0.000
362.06	0.000
362.27	0.000
362.48	0.000
362.69	0.000
362.89	0.001
363.10	0.000
363.31	0.001
363.52	0.000
363.73	0.000
363.93	0.000
364.14	0.000
364.35	0.000
364.56	0.000
364.77	0.000
364.97	0.000
365.18	0.000
365.39	0.000
365.60	0.000
365.81	0.000
366.01	0.000
366.22	0.000
366.43	0.000
366.64	0.001
366.84	0.001
367.05	0.000
367.26	0.000
367.47	0.000
367.68	0.000
367.88	0.000
368.09	0.000
368.30	0.000
368.51	0.000
368.71	0.000
368.92	0.000
369.13	0.000
369.34	0.000
369.55	0.000
369.75	0.000
369.96	0.000
370.17	0.000
370.38	0.000
370.58	0.000
370.79	0.000
371.00	0.000
371.21	0.000
371.41	0.000
371.62	0.000
371.83	0.000
372.04	0.000
372.24	0.001
372.45	0.001
372.66	0.001
372.87	0.001
373.07	0.001
373.28	0.001
373.49	0.001
373.70	0.000
373.90	0.000
374.11	0.000
374.32	0.000
374.53	0.000
374.73	0.000
374.94	0.000
375.15	0.000
375.36	0.000
375.56	0.000
375.77	0.000
375.98	0.000
376.19	0.000
376.39	0.000
376.60	0.001
376.81	0.001
377.02	0.001
377.22	0.001
377.43	0.000
377.64	0.000
377.84	0.000
378.05	0.001
378.26	0.000
378.47	0.001
378.67	0.000
378.88	0.000
379.09	0.000
379.30	0.000
379.50	0.001
379.71	0.001
379.92	0.001
380.12	0.001
380.33	0.000
380.54	0.001
380.75	0.001
380.95	0.001
381.16	0.001
381.37	0.001
381.57	0.001
381.78	0.001
381.99	0.001
382.20	0.001
382.40	0.001
382.61	0.001
382.82	0.001
383.02	0.001
383.23	0.000
383.44	0.001
383.64	0.001
383.85	0.001
384.06	0.001
384.27	0.001
384.47	0.001
384.68	0.000
384.89	0.000
385.09	0.000
385.30	0.000
385.51	0.000
385.71	0.000
385.92	0.001
386.13	0.000
386.33	0.001
386.54	0.000
386.75	0.001
386.95	0.001
387.16	0.001
387.37	0.001
387.58	0.001
387.78	0.001
387.99	0.001
388.20	0.001
388.40	0.001
388.61	0.001
388.82	0.001
389.02	0.001
389.23	0.001
389.44	0.001
389.64	0.001
389.85	0.001
390.06	0.001
390.26	0.001
390.47	0.000
390.68	0.000
390.88	0.001
391.09	0.000
391.30	0.000
391.50	0.000
391.71	0.000
391.92	0.000
392.12	0.000
392.33	0.000
392.53	0.000
392.74	0.001
392.95	0.000
393.15	0.000
393.36	0.000
393.57	0.001
393.77	0.001
393.98	0.001
394.19	0.000
394.39	0.000
394.60	0.000
394.81	0.001
395.01	0.001
395.22	0.001
395.43	0.001
395.63	0.001
395.84	0.000
396.04	0.000
396.25	0.000
396.46	0.001
396.66	0.000
396.87	0.000
397.08	0.000
397.28	0.000
397.49	0.000
397.69	0.000
397.90	0.000
398.11	0.001
398.31	0.001
398.52	0.001
398.73	0.001
398.93	0.001
399.14	0.001
399.34	0.001
399.55	0.001
399.76	0.001
399.96	0.001
400.17	0.001
400.37	0.000
400.58	0.000
400.79	0.001
400.99	0.001
401.20	0.001
401.41	0.001
401.61	0.001
401.82	0.001
402.02	0.001
402.23	0.001
402.44	0.001
402.64	0.001
402.85	0.001
403.05	0.000
403.26	0.000
403.47	0.000
403.67	0.000
403.88	0.000
404.08	0.000
404.29	0.000
404.50	0.000
404.70	0.000
404.91	0.000
405.11	0.000
405.32	0.000
405.52	0.000
405.73	0.000
405.94	0.000
406.14	0.000
406.35	0.000
406.55	0.000
406.76	0.000
406.97	0.000
407.17	0.000
407.38	0.000
407.58	0.000
407.79	0.001
407.99	0.001
408.20	0.001
408.41	0.001
408.61	0.001
408.82	0.001
409.02	0.001
409.23	0.001
409.43	0.001
409.64	0.001
409.84	0.001
410.05	0.001
410.26	0.000
410.46	0.000
410.67	0.000
410.87	0.000
411.08	0.000
411.28	0.000
411.49	0.000
411.69	0.000
411.90	0.000
412.11	0.000
412.31	0.000
412.52	0.000
412.72	0.000
412.93	0.000
413.13	0.000
413.34	0.000
413.54	0.000
413.75	0.001
413.95	0.001
414.16	0.000
414.37	0.000
414.57	0.000
414.78	0.000
414.98	0.000
415.19	0.000
415.39	0.000
415.60	0.000
415.80	0.000
416.01	0.000
416.21	0.000
416.42	0.000
416.62	0.000
416.83	0.001
417.03	0.000
417.24	0.000
417.44	0.000
417.65	0.001
417.86	0.000
418.06	0.000
418.27	0.000
418.47	0.000
418.68	0.000
418.88	-0.000
419.09	-0.000
419.29	-0.000
419.50	0.000
419.70	0.000
419.91	-0.000
420.11	-0.000
420.32	-0.000
420.52	-0.000
420.73	-0.000
420.93	0.000
421.14	0.000
421.34	0.000
421.55	0.000
421.75	0.000
421.96	0.000
422.16	0.000
422.37	0.000
422.57	0.000
422.78	0.000
422.98	0.000
423.19	0.000
423.39	0.000
423.60	0.000
423.80	0.000
424.01	0.000
424.21	0.000
424.42	0.001
424.62	0.001
424.83	0.001
425.03	0.001
425.23	0.001
425.44	0.001
425.64	0.000
425.85	0.000
426.05	0.001
426.26	0.001
426.46	0.001
426.67	0.001
426.87	0.001
427.08	0.001
427.28	0.001
427.49	0.000
427.69	0.000
427.90	0.001
428.10	0.000
428.31	0.000
428.51	0.000
428.71	0.000
428.92	0.000
429.12	0.000
429.33	0.000
429.53	0.000
429.74	0.000
429.94	0.000
430.15	0.000
430.35	0.000
430.56	0.000
430.76	0.000
430.96	0.000
431.17	0.000
431.37	0.000
431.58	0.001
431.78	0.000
431.99	0.000
432.19	0.000
432.40	0.001
432.60	0.001
432.80	0.001
433.01	0.001
433.21	0.001
433.42	0.001
433.62	0.001
433.83	0.000
434.03	0.000
434.23	0.000
434.44	0.000
434.64	0.000
434.85	0.000
435.05	0.000
435.26	0.000
435.46	0.000
435.66	0.000
435.87	0.000
436.07	0.000
436.28	0.000
436.48	0.000
436.69	0.000
436.89	0.000
437.09	0.000
437.30	0.000
437.50	0.000
437.71	0.000
437.91	0.000
438.11	0.000
438.32	0.000
438.52	0.000
438.73	0.000
438.93	0.000
439.13	0.000
439.34	0.000
439.54	0.000
439.75	0.000
439.95	0.000
440.15	0.000
440.36	0.000
440.56	-0.000
440.77	0.000
440.97	0.000
441.17	0.000
441.38	0.000
441.58	0.000
441.79	0.000
441.99	0.000
442.19	0.000
442.40	0.000
442.60	0.000
442.81	0.000
443.01	0.000
443.21	0.000
443.42	0.000
443.62	0.000
443.82	0.000
444.03	0.000
444.23	-0.000
444.44	-0.000
444.64	-0.000
444.84	-0.000
445.05	-0.000
445.25	-0.000
445.45	-0.000
445.66	-0.000
445.86	-0.000
446.06	-0.000
446.27	-0.000
446.47	-0.000
446.68	0.000
446.88	0.000
447.08	0.000
447.29	0.000
447.49	0.000
447.69	0.000
447.90	-0.000
448.10	0.000
448.30	0.000
448.51	0.000
448.71	0.000
448.91	0.000
449.12	0.000
449.32	0.000
449.52	0.000
449.73	0.000
449.93	0.000
450.14	0.000
450.34	0.000
450.54	0.000
450.75	0.000
450.95	0.000
451.15	0.000
451.36	0.001
451.56	0.001
451.76	0.000
451.97	0.000
452.17	0.000
452.37	0.000
452.58	0.000
452.78	0.000
452.98	0.000
453.19	0.000
453.39	0.000
453.59	0.000
453.79	0.000
454.00	0.000
454.20	0.000
454.40	0.000
454.61	0.000
454.81	0.000
455.01	0.000
455.22	0.000
455.42	0.000
455.62	0.000
455.83	0.000
456.03	0.000
456.23	0.000
456.44	0.000
456.64	0.000
456.84	0.000
457.04	0.000
