SpectraSuite Data File
++++++++++++++++++++++++++++++++++++
Date: Mon Jun 15 09:24:28 PDT 2015
User: introlabs
Dark Spectrum Present: Yes
Reference Spectrum Present: Yes
Number of Sampled Component Spectra: 1
Spectrometers: USB4H08886
Integration Time (usec): 44366 (USB4H08886)
Spectra Averaged: 20 (USB4H08886)
Boxcar Smoothing: 5 (USB4H08886)
Correct for Electrical Dark: Yes (USB4H08886)
Strobe/Lamp Enabled: No (USB4H08886)
Correct for Detector Non-linearity: Yes (USB4H08886)
Correct for Stray Light: Yes (USB4H08886)
Number of Pixels in Processed Spectrum: 3648
>>>>>Begin Processed Spectral Data<<<<<
178.14	-0.000
178.36	-0.000
178.57	-0.000
178.79	0.541
179.01	-0.993
179.22	-0.000
179.44	-0.121
179.65	-0.000
179.87	-0.000
180.08	-0.000
180.30	-0.000
180.52	0.964
180.73	0.313
180.95	0.146
181.16	0.067
181.38	0.021
181.59	0.020
181.81	0.001
182.03	0.009
182.24	0.013
182.46	0.013
182.67	0.011
182.89	0.026
183.10	0.033
183.32	0.035
183.54	0.030
183.75	0.031
183.97	0.033
184.18	0.024
184.40	0.015
184.61	0.018
184.83	0.017
185.04	0.007
185.26	0.000
185.48	0.002
185.69	0.003
185.91	0.010
186.12	0.005
186.34	0.005
186.55	-0.000
186.77	0.008
186.98	-0.007
187.20	-0.013
187.42	-0.002
187.63	-0.001
187.85	-0.005
188.06	-0.005
188.28	-0.006
188.49	-0.002
188.71	0.001
188.92	-0.001
189.14	-0.007
189.36	0.005
189.57	0.007
189.79	0.001
190.00	-0.005
190.22	-0.009
190.43	-0.009
190.65	-0.016
190.86	-0.008
191.08	-0.009
191.29	-0.002
191.51	0.003
191.72	-0.007
191.94	-0.003
192.16	-0.002
192.37	-0.001
192.59	0.008
192.80	0.004
193.02	0.006
193.23	0.006
193.45	0.002
193.66	-0.002
193.88	-0.006
194.09	0.003
194.31	-0.004
194.52	-0.009
194.74	-0.007
194.95	-0.017
195.17	-0.018
195.38	-0.022
195.60	-0.033
195.81	-0.029
196.03	-0.021
196.25	-0.016
196.46	-0.023
196.68	-0.019
196.89	-0.016
197.11	-0.015
197.32	-0.012
197.54	-0.013
197.75	-0.000
197.97	0.002
198.18	-0.003
198.40	-0.001
198.61	-0.011
198.83	-0.012
199.04	-0.010
199.26	-0.015
199.47	-0.016
199.69	-0.011
199.90	0.001
200.12	-0.008
200.33	-0.007
200.55	-0.005
200.76	-0.009
200.98	-0.005
201.19	-0.006
201.41	-0.010
201.62	0.002
201.84	0.006
202.05	0.005
202.27	0.003
202.48	0.001
202.70	0.001
202.91	0.002
203.13	0.003
203.34	-0.001
203.56	-0.002
203.77	0.003
203.99	-0.010
204.20	-0.008
204.42	-0.009
204.63	-0.011
204.85	-0.009
205.06	-0.008
205.28	-0.007
205.49	-0.010
205.71	-0.001
205.92	0.001
206.14	0.000
206.35	0.006
206.56	0.008
206.78	0.000
206.99	0.001
207.21	0.003
207.42	0.006
207.64	0.006
207.85	0.014
208.07	0.017
208.28	0.023
208.50	0.027
208.71	0.031
208.93	0.026
209.14	0.030
209.36	0.025
209.57	0.027
209.79	0.024
210.00	0.024
210.22	0.024
210.43	0.018
210.64	0.013
210.86	0.008
211.07	0.003
211.29	-0.000
211.50	-0.003
211.72	-0.008
211.93	-0.011
212.15	-0.008
212.36	-0.013
212.58	-0.017
212.79	-0.020
213.01	-0.026
213.22	-0.025
213.43	-0.021
213.65	-0.014
213.86	-0.012
214.08	-0.003
214.29	-0.003
214.51	-0.006
214.72	-0.003
214.94	-0.003
215.15	0.004
215.36	0.007
215.58	0.006
215.79	0.002
216.01	0.002
216.22	0.005
216.44	0.000
216.65	-0.004
216.87	-0.001
217.08	-0.001
217.29	0.008
217.51	0.007
217.72	0.012
217.94	0.017
218.15	0.023
218.37	0.015
218.58	0.011
218.80	0.015
219.01	0.015
219.22	0.009
219.44	0.013
219.65	0.005
219.87	0.006
220.08	0.001
220.30	-0.006
220.51	-0.007
220.72	-0.000
220.94	-0.004
221.15	-0.007
221.37	-0.010
221.58	-0.010
221.79	-0.008
222.01	-0.012
222.22	-0.021
222.44	-0.024
222.65	-0.024
222.87	-0.027
223.08	-0.030
223.29	-0.028
223.51	-0.030
223.72	-0.027
223.94	-0.027
224.15	-0.033
224.36	-0.030
224.58	-0.029
224.79	-0.026
225.01	-0.030
225.22	-0.032
225.44	-0.032
225.65	-0.029
225.86	-0.026
226.08	-0.025
226.29	-0.028
226.51	-0.027
226.72	-0.026
226.93	-0.023
227.15	-0.026
227.36	-0.023
227.58	-0.024
227.79	-0.018
228.00	-0.018
228.22	-0.028
228.43	-0.030
228.65	-0.029
228.86	-0.030
229.07	-0.034
229.29	-0.034
229.50	-0.034
229.72	-0.033
229.93	-0.034
230.14	-0.040
230.36	-0.046
230.57	-0.042
230.78	-0.047
231.00	-0.048
231.21	-0.052
231.43	-0.050
231.64	-0.051
231.85	-0.051
232.07	-0.051
232.28	-0.054
232.50	-0.056
232.71	-0.054
232.92	-0.054
233.14	-0.052
233.35	-0.051
233.56	-0.049
233.78	-0.050
233.99	-0.051
234.21	-0.054
234.42	-0.054
234.63	-0.054
234.85	-0.053
235.06	-0.054
235.27	-0.052
235.49	-0.050
235.70	-0.052
235.91	-0.053
236.13	-0.052
236.34	-0.053
236.56	-0.052
236.77	-0.052
236.98	-0.051
237.20	-0.052
237.41	-0.051
237.62	-0.052
237.84	-0.052
238.05	-0.052
238.26	-0.053
238.48	-0.052
238.69	-0.050
238.91	-0.051
239.12	-0.050
239.33	-0.049
239.55	-0.049
239.76	-0.048
239.97	-0.047
240.19	-0.046
240.40	-0.045
240.61	-0.044
240.83	-0.043
241.04	-0.043
241.25	-0.043
241.47	-0.041
241.68	-0.040
241.89	-0.039
242.11	-0.039
242.32	-0.039
242.53	-0.038
242.75	-0.037
242.96	-0.037
243.17	-0.036
243.39	-0.035
243.60	-0.035
243.81	-0.034
244.03	-0.035
244.24	-0.034
244.45	-0.033
244.67	-0.032
244.88	-0.031
245.09	-0.031
245.31	-0.030
245.52	-0.030
245.73	-0.030
245.95	-0.029
246.16	-0.029
246.37	-0.028
246.59	-0.027
246.80	-0.027
247.01	-0.027
247.23	-0.028
247.44	-0.028
247.65	-0.027
247.87	-0.026
248.08	-0.026
248.29	-0.026
248.51	-0.026
248.72	-0.026
248.93	-0.025
249.15	-0.025
249.36	-0.025
249.57	-0.024
249.78	-0.024
250.00	-0.024
250.21	-0.023
250.42	-0.023
250.64	-0.023
250.85	-0.023
251.06	-0.023
251.28	-0.022
251.49	-0.022
251.70	-0.022
251.92	-0.021
252.13	-0.020
252.34	-0.020
252.55	-0.020
252.77	-0.021
252.98	-0.020
253.19	-0.020
253.41	-0.019
253.62	-0.019
253.83	-0.019
254.05	-0.019
254.26	-0.019
254.47	-0.019
254.68	-0.019
254.90	-0.019
255.11	-0.019
255.32	-0.018
255.54	-0.018
255.75	-0.018
255.96	-0.018
256.17	-0.018
256.39	-0.018
256.60	-0.018
256.81	-0.018
257.03	-0.018
257.24	-0.018
257.45	-0.018
257.66	-0.018
257.88	-0.018
258.09	-0.018
258.30	-0.018
258.51	-0.018
258.73	-0.018
258.94	-0.018
259.15	-0.019
259.37	-0.019
259.58	-0.019
259.79	-0.019
260.00	-0.019
260.22	-0.019
260.43	-0.019
260.64	-0.019
260.85	-0.020
261.07	-0.020
261.28	-0.020
261.49	-0.020
261.71	-0.020
261.92	-0.020
262.13	-0.021
262.34	-0.020
262.56	-0.020
262.77	-0.020
262.98	-0.021
263.19	-0.021
263.41	-0.021
263.62	-0.021
263.83	-0.021
264.04	-0.022
264.26	-0.022
264.47	-0.021
264.68	-0.022
264.89	-0.022
265.11	-0.022
265.32	-0.022
265.53	-0.022
265.74	-0.022
265.96	-0.023
266.17	-0.023
266.38	-0.023
266.59	-0.023
266.81	-0.023
267.02	-0.024
267.23	-0.025
267.44	-0.025
267.65	-0.026
267.87	-0.026
268.08	-0.026
268.29	-0.026
268.50	-0.026
268.72	-0.026
268.93	-0.026
269.14	-0.026
269.35	-0.026
269.57	-0.026
269.78	-0.026
269.99	-0.026
270.20	-0.026
270.41	-0.027
270.63	-0.027
270.84	-0.027
271.05	-0.028
271.26	-0.028
271.48	-0.028
271.69	-0.029
271.90	-0.029
272.11	-0.029
272.32	-0.030
272.54	-0.030
272.75	-0.030
272.96	-0.030
273.17	-0.030
273.39	-0.030
273.60	-0.030
273.81	-0.030
274.02	-0.031
274.23	-0.031
274.45	-0.031
274.66	-0.031
274.87	-0.031
275.08	-0.031
275.29	-0.032
275.51	-0.032
275.72	-0.032
275.93	-0.031
276.14	-0.031
276.35	-0.031
276.57	-0.031
276.78	-0.031
276.99	-0.031
277.20	-0.031
277.41	-0.031
277.63	-0.030
277.84	-0.030
278.05	-0.030
278.26	-0.030
278.47	-0.030
278.69	-0.030
278.90	-0.029
279.11	-0.029
279.32	-0.029
279.53	-0.028
279.74	-0.028
279.96	-0.028
280.17	-0.028
280.38	-0.028
280.59	-0.028
280.80	-0.028
281.02	-0.027
281.23	-0.028
281.44	-0.027
281.65	-0.027
281.86	-0.027
282.07	-0.027
282.29	-0.026
282.50	-0.026
282.71	-0.026
282.92	-0.026
283.13	-0.026
283.35	-0.026
283.56	-0.026
283.77	-0.026
283.98	-0.025
284.19	-0.025
284.40	-0.025
284.62	-0.025
284.83	-0.024
285.04	-0.024
285.25	-0.023
285.46	-0.022
285.67	-0.022
285.88	-0.021
286.10	-0.021
286.31	-0.020
286.52	-0.019
286.73	-0.018
286.94	-0.018
287.15	-0.017
287.37	-0.016
287.58	-0.016
287.79	-0.015
288.00	-0.015
288.21	-0.014
288.42	-0.013
288.63	-0.013
288.85	-0.012
289.06	-0.012
289.27	-0.011
289.48	-0.011
289.69	-0.011
289.90	-0.010
290.11	-0.010
290.33	-0.009
290.54	-0.009
290.75	-0.008
290.96	-0.008
291.17	-0.008
291.38	-0.007
291.59	-0.007
291.81	-0.007
292.02	-0.006
292.23	-0.006
292.44	-0.006
292.65	-0.006
292.86	-0.005
293.07	-0.005
293.28	-0.005
293.50	-0.005
293.71	-0.004
293.92	-0.004
294.13	-0.004
294.34	-0.004
294.55	-0.003
294.76	-0.003
294.97	-0.003
295.19	-0.003
295.40	-0.003
295.61	-0.003
295.82	-0.003
296.03	-0.003
296.24	-0.003
296.45	-0.003
296.66	-0.003
296.87	-0.003
297.09	-0.003
297.30	-0.003
297.51	-0.002
297.72	-0.002
297.93	-0.002
298.14	-0.002
298.35	-0.002
298.56	-0.002
298.77	-0.002
298.99	-0.002
299.20	-0.002
299.41	-0.002
299.62	-0.002
299.83	-0.002
300.04	-0.002
300.25	-0.002
300.46	-0.002
300.67	-0.001
300.88	-0.001
301.10	-0.001
301.31	-0.001
301.52	-0.001
301.73	-0.001
301.94	-0.001
302.15	-0.001
302.36	-0.001
302.57	-0.001
302.78	-0.001
302.99	-0.001
303.20	-0.001
303.41	-0.001
303.63	-0.001
303.84	-0.001
304.05	-0.001
304.26	-0.001
304.47	-0.001
304.68	-0.001
304.89	-0.001
305.10	-0.001
305.31	-0.001
305.52	-0.001
305.73	-0.001
305.94	-0.001
306.15	-0.000
306.37	-0.000
306.58	-0.000
306.79	-0.000
307.00	-0.000
307.21	-0.000
307.42	0.000
307.63	0.000
307.84	0.000
308.05	0.000
308.26	0.000
308.47	0.000
308.68	0.000
308.89	0.000
309.10	0.000
309.31	0.000
309.52	0.000
309.73	0.000
309.95	0.000
310.16	0.000
310.37	0.000
310.58	0.000
310.79	0.000
311.00	0.000
311.21	0.000
311.42	0.000
311.63	0.000
311.84	0.000
312.05	0.000
312.26	0.001
312.47	0.001
312.68	0.001
312.89	0.001
313.10	0.001
313.31	0.001
313.52	0.001
313.73	0.001
313.94	0.001
314.15	0.001
314.36	0.001
314.57	0.001
314.78	0.001
314.99	0.001
315.21	0.001
315.42	0.001
315.63	0.001
315.84	0.001
316.05	0.001
316.26	0.001
316.47	0.001
316.68	0.001
316.89	0.001
317.10	0.001
317.31	0.002
317.52	0.001
317.73	0.002
317.94	0.002
318.15	0.002
318.36	0.002
318.57	0.002
318.78	0.002
318.99	0.002
319.20	0.002
319.41	0.002
319.62	0.002
319.83	0.002
320.04	0.002
320.25	0.002
320.46	0.002
320.67	0.002
320.88	0.002
321.09	0.002
321.30	0.002
321.51	0.002
321.72	0.002
321.93	0.002
322.14	0.002
322.35	0.002
322.56	0.002
322.77	0.002
322.98	0.002
323.19	0.002
323.40	0.002
323.61	0.002
323.82	0.002
324.03	0.003
324.24	0.003
324.45	0.003
324.66	0.002
324.87	0.002
325.08	0.002
325.29	0.002
325.50	0.002
325.71	0.002
325.92	0.002
326.13	0.002
326.34	0.002
326.55	0.002
326.76	0.002
326.97	0.002
327.18	0.002
327.39	0.002
327.60	0.002
327.80	0.002
328.01	0.002
328.22	0.002
328.43	0.002
328.64	0.002
328.85	0.002
329.06	0.002
329.27	0.002
329.48	0.002
329.69	0.002
329.90	0.003
330.11	0.003
330.32	0.002
330.53	0.002
330.74	0.002
330.95	0.002
331.16	0.002
331.37	0.002
331.58	0.003
331.79	0.003
332.00	0.003
332.21	0.003
332.42	0.002
332.63	0.003
332.83	0.003
333.04	0.002
333.25	0.003
333.46	0.003
333.67	0.002
333.88	0.002
334.09	0.002
334.30	0.002
334.51	0.002
334.72	0.002
334.93	0.002
335.14	0.002
335.35	0.002
335.56	0.002
335.77	0.002
335.98	0.002
336.18	0.002
336.39	0.002
336.60	0.002
336.81	0.002
337.02	0.002
337.23	0.002
337.44	0.002
337.65	0.002
337.86	0.002
338.07	0.002
338.28	0.002
338.49	0.002
338.70	0.001
338.91	0.001
339.11	0.001
339.32	0.001
339.53	0.001
339.74	0.001
339.95	0.001
340.16	0.001
340.37	0.001
340.58	0.001
340.79	0.001
341.00	0.001
341.21	0.001
341.41	0.001
341.62	0.001
341.83	0.000
342.04	0.000
342.25	0.000
342.46	0.000
342.67	0.000
342.88	0.000
343.09	0.000
343.30	0.000
343.50	0.000
343.71	0.000
343.92	0.000
344.13	0.000
344.34	0.000
344.55	0.000
344.76	0.000
344.97	0.000
345.18	0.000
345.38	0.000
345.59	-0.000
345.80	-0.000
346.01	-0.000
346.22	-0.000
346.43	-0.000
346.64	-0.000
346.85	-0.000
347.06	-0.000
347.26	-0.000
347.47	-0.000
347.68	-0.000
347.89	-0.000
348.10	-0.000
348.31	-0.000
348.52	-0.000
348.73	-0.001
348.93	-0.001
349.14	-0.001
349.35	-0.001
349.56	-0.001
349.77	-0.001
349.98	-0.001
350.19	-0.001
350.39	-0.001
350.60	-0.001
350.81	-0.001
351.02	-0.001
351.23	-0.001
351.44	-0.001
351.65	-0.001
351.86	-0.001
352.06	-0.001
352.27	-0.001
352.48	-0.001
352.69	-0.001
352.90	-0.001
353.11	-0.001
353.31	-0.000
353.52	-0.001
353.73	-0.001
353.94	-0.001
354.15	-0.001
354.36	-0.001
354.57	-0.001
354.77	-0.001
354.98	-0.001
355.19	-0.001
355.40	-0.001
355.61	-0.001
355.82	-0.001
356.02	-0.001
356.23	-0.001
356.44	-0.001
356.65	-0.001
356.86	-0.001
357.07	-0.001
357.27	-0.001
357.48	-0.000
357.69	-0.001
357.90	-0.001
358.11	-0.001
358.32	-0.001
358.52	-0.001
358.73	-0.001
358.94	-0.001
359.15	-0.001
359.36	-0.001
359.56	-0.001
359.77	-0.001
359.98	-0.001
360.19	-0.001
360.40	-0.001
360.61	-0.001
360.81	-0.001
361.02	-0.001
361.23	-0.001
361.44	-0.001
361.65	-0.001
361.85	-0.001
362.06	-0.001
362.27	-0.001
362.48	-0.001
362.69	-0.001
362.89	-0.001
363.10	-0.001
363.31	-0.001
363.52	-0.001
363.73	-0.001
363.93	-0.001
364.14	-0.001
364.35	-0.001
364.56	-0.001
364.77	-0.001
364.97	-0.001
365.18	-0.001
365.39	-0.001
365.60	-0.001
365.81	-0.001
366.01	-0.001
366.22	-0.001
366.43	-0.001
366.64	-0.002
366.84	-0.001
367.05	-0.001
367.26	-0.001
367.47	-0.001
367.68	-0.001
367.88	-0.001
368.09	-0.001
368.30	-0.001
368.51	-0.001
368.71	-0.001
368.92	-0.001
369.13	-0.001
369.34	-0.001
369.55	-0.001
369.75	-0.001
369.96	-0.001
370.17	-0.001
370.38	-0.001
370.58	-0.001
370.79	-0.001
371.00	-0.001
371.21	-0.001
371.41	-0.001
371.62	-0.001
371.83	-0.001
372.04	-0.001
372.24	-0.001
372.45	-0.001
372.66	-0.001
372.87	-0.001
373.07	-0.001
373.28	-0.001
373.49	-0.001
373.70	-0.001
373.90	-0.001
374.11	-0.001
374.32	-0.001
374.53	-0.001
374.73	-0.001
374.94	-0.001
375.15	-0.001
375.36	-0.001
375.56	-0.001
375.77	-0.001
375.98	-0.001
376.19	-0.001
376.39	-0.001
376.60	-0.001
376.81	-0.002
377.02	-0.002
377.22	-0.002
377.43	-0.002
377.64	-0.002
377.84	-0.002
378.05	-0.002
378.26	-0.002
378.47	-0.002
378.67	-0.002
378.88	-0.002
379.09	-0.001
379.30	-0.002
379.50	-0.002
379.71	-0.002
379.92	-0.001
380.12	-0.002
380.33	-0.002
380.54	-0.001
380.75	-0.001
380.95	-0.002
381.16	-0.002
381.37	-0.002
381.57	-0.002
381.78	-0.002
381.99	-0.002
382.20	-0.002
382.40	-0.001
382.61	-0.001
382.82	-0.002
383.02	-0.002
383.23	-0.002
383.44	-0.001
383.64	-0.001
383.85	-0.001
384.06	-0.001
384.27	-0.001
384.47	-0.001
384.68	-0.001
384.89	-0.001
385.09	-0.002
385.30	-0.002
385.51	-0.002
385.71	-0.002
385.92	-0.002
386.13	-0.002
386.33	-0.002
386.54	-0.002
386.75	-0.002
386.95	-0.002
387.16	-0.002
387.37	-0.002
387.58	-0.002
387.78	-0.002
387.99	-0.002
388.20	-0.002
388.40	-0.002
388.61	-0.002
388.82	-0.002
389.02	-0.002
389.23	-0.002
389.44	-0.002
389.64	-0.002
389.85	-0.002
390.06	-0.002
390.26	-0.002
390.47	-0.002
390.68	-0.002
390.88	-0.002
391.09	-0.002
391.30	-0.002
391.50	-0.002
391.71	-0.002
391.92	-0.002
392.12	-0.002
392.33	-0.002
392.53	-0.002
392.74	-0.002
392.95	-0.002
393.15	-0.002
393.36	-0.002
393.57	-0.002
393.77	-0.002
393.98	-0.002
394.19	-0.001
394.39	-0.001
394.60	-0.001
394.81	-0.002
395.01	-0.002
395.22	-0.002
395.43	-0.002
395.63	-0.002
395.84	-0.002
396.04	-0.002
396.25	-0.002
396.46	-0.003
396.66	-0.003
396.87	-0.003
397.08	-0.003
397.28	-0.003
397.49	-0.002
397.69	-0.002
397.90	-0.002
398.11	-0.002
398.31	-0.002
398.52	-0.002
398.73	-0.002
398.93	-0.002
399.14	-0.002
399.34	-0.002
399.55	-0.002
399.76	-0.002
399.96	-0.002
400.17	-0.002
400.37	-0.002
400.58	-0.002
400.79	-0.002
400.99	-0.002
401.20	-0.002
401.41	-0.002
401.61	-0.002
401.82	-0.002
402.02	-0.001
402.23	-0.002
402.44	-0.002
402.64	-0.002
402.85	-0.002
403.05	-0.002
403.26	-0.002
403.47	-0.002
403.67	-0.002
403.88	-0.002
404.08	-0.002
404.29	-0.003
404.50	-0.002
404.70	-0.002
404.91	-0.002
405.11	-0.002
405.32	-0.003
405.52	-0.003
405.73	-0.003
405.94	-0.003
406.14	-0.003
406.35	-0.003
406.55	-0.003
406.76	-0.003
406.97	-0.003
407.17	-0.003
407.38	-0.003
407.58	-0.003
407.79	-0.003
407.99	-0.002
408.20	-0.002
408.41	-0.002
408.61	-0.002
408.82	-0.002
409.02	-0.002
409.23	-0.002
409.43	-0.002
409.64	-0.002
409.84	-0.002
410.05	-0.002
410.26	-0.002
410.46	-0.002
410.67	-0.002
410.87	-0.002
411.08	-0.003
411.28	-0.002
411.49	-0.002
411.69	-0.003
411.90	-0.003
412.11	-0.003
412.31	-0.003
412.52	-0.003
412.72	-0.003
412.93	-0.003
413.13	-0.003
413.34	-0.003
413.54	-0.003
413.75	-0.002
413.95	-0.002
414.16	-0.002
414.37	-0.002
414.57	-0.002
414.78	-0.002
414.98	-0.002
415.19	-0.002
415.39	-0.002
415.60	-0.002
415.80	-0.003
416.01	-0.003
416.21	-0.003
416.42	-0.003
416.62	-0.003
416.83	-0.003
417.03	-0.003
417.24	-0.003
417.44	-0.003
417.65	-0.003
417.86	-0.003
418.06	-0.003
418.27	-0.003
418.47	-0.003
418.68	-0.003
418.88	-0.003
419.09	-0.003
419.29	-0.003
419.50	-0.003
419.70	-0.003
419.91	-0.003
420.11	-0.003
420.32	-0.003
420.52	-0.003
420.73	-0.003
420.93	-0.003
421.14	-0.003
421.34	-0.003
421.55	-0.003
421.75	-0.003
421.96	-0.003
422.16	-0.003
422.37	-0.003
422.57	-0.003
422.78	-0.003
422.98	-0.003
423.19	-0.003
423.39	-0.003
423.60	-0.003
423.80	-0.003
424.01	-0.003
424.21	-0.003
424.42	-0.003
424.62	-0.003
424.83	-0.002
425.03	-0.003
425.23	-0.003
425.44	-0.003
425.64	-0.003
425.85	-0.003
426.05	-0.003
426.26	-0.003
426.46	-0.003
426.67	-0.003
426.87	-0.003
427.08	-0.003
427.28	-0.003
427.49	-0.003
427.69	-0.003
427.90	-0.003
428.10	-0.003
428.31	-0.003
428.51	-0.003
428.71	-0.003
428.92	-0.003
429.12	-0.003
429.33	-0.003
429.53	-0.003
429.74	-0.003
429.94	-0.003
430.15	-0.003
430.35	-0.003
430.56	-0.003
430.76	-0.003
430.96	-0.003
431.17	-0.003
431.37	-0.003
431.58	-0.003
431.78	-0.003
431.99	-0.003
432.19	-0.002
432.40	-0.002
432.60	-0.003
432.80	-0.003
433.01	-0.003
433.21	-0.003
433.42	-0.003
433.62	-0.003
433.83	-0.003
434.03	-0.003
434.23	-0.003
434.44	-0.003
434.64	-0.003
434.85	-0.003
435.05	-0.003
435.26	-0.003
435.46	-0.003
435.66	-0.003
435.87	-0.003
436.07	-0.003
436.28	-0.003
436.48	-0.003
436.69	-0.003
436.89	-0.003
437.09	-0.003
437.30	-0.003
437.50	-0.003
437.71	-0.003
437.91	-0.003
438.11	-0.003
438.32	-0.003
438.52	-0.003
438.73	-0.003
438.93	-0.003
439.13	-0.003
439.34	-0.003
439.54	-0.003
439.75	-0.003
439.95	-0.003
440.15	-0.003
440.36	-0.003
440.56	-0.003
440.77	-0.003
440.97	-0.003
441.17	-0.003
441.38	-0.003
441.58	-0.003
441.79	-0.003
441.99	-0.003
442.19	-0.003
442.40	-0.003
442.60	-0.003
442.81	-0.003
443.01	-0.003
443.21	-0.003
443.42	-0.003
443.62	-0.003
443.82	-0.003
444.03	-0.003
444.23	-0.003
444.44	-0.003
444.64	-0.003
444.84	-0.003
445.05	-0.003
445.25	-0.003
445.45	-0.003
445.66	-0.003
445.86	-0.003
446.06	-0.003
446.27	-0.003
446.47	-0.003
446.68	-0.003
446.88	-0.003
447.08	-0.003
447.29	-0.003
447.49	-0.003
447.69	-0.003
447.90	-0.004
448.10	-0.003
448.30	-0.003
448.51	-0.003
448.71	-0.003
448.91	-0.003
449.12	-0.003
449.32	-0.003
449.52	-0.003
449.73	-0.003
449.93	-0.003
450.14	-0.003
450.34	-0.003
450.54	-0.003
450.75	-0.003
450.95	-0.003
451.15	-0.003
451.36	-0.003
451.56	-0.003
451.76	-0.003
451.97	-0.003
452.17	-0.003
452.37	-0.003
452.58	-0.003
452.78	-0.003
452.98	-0.003
