SpectraSuite Data File
++++++++++++++++++++++++++++++++++++
Date: Mon Jun 15 08:13:23 PDT 2015
User: introlabs
Dark Spectrum Present: Yes
Reference Spectrum Present: Yes
Number of Sampled Component Spectra: 1
Spectrometers: USB4H08886
Integration Time (usec): 44366 (USB4H08886)
Spectra Averaged: 20 (USB4H08886)
Boxcar Smoothing: 5 (USB4H08886)
Correct for Electrical Dark: Yes (USB4H08886)
Strobe/Lamp Enabled: No (USB4H08886)
Correct for Detector Non-linearity: Yes (USB4H08886)
Correct for Stray Light: Yes (USB4H08886)
Number of Pixels in Processed Spectrum: 3648
>>>>>Begin Processed Spectral Data<<<<<
178.14	0.365
178.36	0.365
178.57	0.365
178.79	-0.000
179.01	-1.202
179.22	0.129
179.44	-0.238
179.65	-0.000
179.87	-0.000
180.08	0.760
180.30	0.751
180.52	1.155
180.73	0.763
180.95	0.186
181.16	0.122
181.38	0.088
181.59	0.069
181.81	0.045
182.03	0.044
182.24	0.049
182.46	0.045
182.67	0.040
182.89	0.038
183.10	0.041
183.32	0.038
183.54	0.027
183.75	0.022
183.97	0.032
184.18	0.027
184.40	0.024
184.61	0.028
184.83	0.035
185.04	0.018
185.26	0.016
185.48	0.004
185.69	0.011
185.91	0.015
186.12	0.018
186.34	0.019
186.55	0.023
186.77	0.023
186.98	0.019
187.20	0.006
187.42	0.020
187.63	0.021
187.85	0.024
188.06	0.023
188.28	0.026
188.49	0.025
188.71	0.011
188.92	0.008
189.14	0.007
189.36	0.005
189.57	0.011
189.79	0.006
190.00	0.007
190.22	0.006
190.43	0.004
190.65	-0.010
190.86	-0.004
191.08	-0.002
191.29	0.005
191.51	0.005
191.72	-0.000
191.94	-0.002
192.16	-0.002
192.37	-0.001
192.59	0.000
192.80	-0.005
193.02	0.008
193.23	0.013
193.45	0.010
193.66	0.007
193.88	0.001
194.09	0.002
194.31	0.001
194.52	-0.005
194.74	-0.011
194.95	-0.010
195.17	-0.005
195.38	-0.013
195.60	-0.027
195.81	-0.020
196.03	-0.023
196.25	-0.011
196.46	-0.006
196.68	-0.004
196.89	0.004
197.11	0.011
197.32	0.008
197.54	0.007
197.75	0.021
197.97	0.027
198.18	0.023
198.40	0.027
198.61	0.016
198.83	0.007
199.04	0.011
199.26	0.002
199.47	-0.005
199.69	0.002
199.90	0.010
200.12	0.003
200.33	0.004
200.55	0.009
200.76	0.007
200.98	0.009
201.19	0.008
201.41	-0.000
201.62	0.007
201.84	0.015
202.05	0.014
202.27	0.002
202.48	0.002
202.70	0.005
202.91	0.006
203.13	-0.001
203.34	-0.010
203.56	-0.009
203.77	0.001
203.99	-0.011
204.20	-0.019
204.42	-0.018
204.63	-0.012
204.85	-0.017
205.06	-0.026
205.28	-0.030
205.49	-0.021
205.71	-0.008
205.92	-0.004
206.14	-0.011
206.35	0.004
206.56	0.012
206.78	0.004
206.99	0.004
207.21	0.009
207.42	0.016
207.64	0.015
207.85	0.012
208.07	0.010
208.28	0.013
208.50	0.020
208.71	0.023
208.93	0.022
209.14	0.032
209.36	0.031
209.57	0.032
209.79	0.030
210.00	0.038
210.22	0.039
210.43	0.042
210.64	0.039
210.86	0.032
211.07	0.022
211.29	0.018
211.50	0.008
211.72	0.001
211.93	-0.002
212.15	-0.001
212.36	-0.011
212.58	-0.009
212.79	-0.013
213.01	-0.016
213.22	-0.016
213.43	-0.019
213.65	-0.013
213.86	-0.010
214.08	0.005
214.29	0.007
214.51	0.006
214.72	0.010
214.94	0.009
215.15	0.016
215.36	0.018
215.58	0.013
215.79	0.012
216.01	0.013
216.22	0.017
216.44	0.007
216.65	0.003
216.87	0.008
217.08	0.007
217.29	0.007
217.51	0.007
217.72	0.002
217.94	0.013
218.15	0.016
218.37	0.011
218.58	0.005
218.80	0.010
219.01	0.011
219.22	0.007
219.44	0.010
219.65	0.008
219.87	0.006
220.08	0.010
220.30	-0.001
220.51	-0.003
220.72	-0.004
220.94	-0.007
221.15	-0.010
221.37	-0.013
221.58	-0.012
221.79	-0.009
222.01	-0.013
222.22	-0.020
222.44	-0.020
222.65	-0.017
222.87	-0.017
223.08	-0.019
223.29	-0.015
223.51	-0.016
223.72	-0.014
223.94	-0.016
224.15	-0.022
224.36	-0.020
224.58	-0.022
224.79	-0.022
225.01	-0.020
225.22	-0.018
225.44	-0.018
225.65	-0.013
225.86	-0.010
226.08	-0.009
226.29	-0.008
226.51	-0.003
226.72	-0.002
226.93	0.005
227.15	-0.001
227.36	-0.002
227.58	-0.003
227.79	0.001
228.00	-0.001
228.22	-0.007
228.43	-0.008
228.65	-0.010
228.86	-0.011
229.07	-0.010
229.29	-0.009
229.50	-0.006
229.72	-0.008
229.93	-0.006
230.14	-0.009
230.36	-0.011
230.57	-0.007
230.78	-0.011
231.00	-0.014
231.21	-0.019
231.43	-0.019
231.64	-0.020
231.85	-0.018
232.07	-0.018
232.28	-0.017
232.50	-0.019
232.71	-0.019
232.92	-0.021
233.14	-0.020
233.35	-0.017
233.56	-0.016
233.78	-0.017
233.99	-0.019
234.21	-0.019
234.42	-0.020
234.63	-0.020
234.85	-0.020
235.06	-0.020
235.27	-0.020
235.49	-0.019
235.70	-0.020
235.91	-0.021
236.13	-0.021
236.34	-0.021
236.56	-0.023
236.77	-0.023
236.98	-0.022
237.20	-0.023
237.41	-0.023
237.62	-0.023
237.84	-0.023
238.05	-0.022
238.26	-0.022
238.48	-0.021
238.69	-0.020
238.91	-0.019
239.12	-0.019
239.33	-0.019
239.55	-0.018
239.76	-0.017
239.97	-0.016
240.19	-0.016
240.40	-0.016
240.61	-0.015
240.83	-0.015
241.04	-0.015
241.25	-0.014
241.47	-0.013
241.68	-0.012
241.89	-0.011
242.11	-0.011
242.32	-0.010
242.53	-0.010
242.75	-0.010
242.96	-0.009
243.17	-0.007
243.39	-0.007
243.60	-0.006
243.81	-0.006
244.03	-0.006
244.24	-0.006
244.45	-0.005
244.67	-0.005
244.88	-0.004
245.09	-0.004
245.31	-0.004
245.52	-0.005
245.73	-0.005
245.95	-0.004
246.16	-0.004
246.37	-0.004
246.59	-0.004
246.80	-0.004
247.01	-0.003
247.23	-0.003
247.44	-0.004
247.65	-0.003
247.87	-0.003
248.08	-0.003
248.29	-0.003
248.51	-0.003
248.72	-0.003
248.93	-0.003
249.15	-0.003
249.36	-0.003
249.57	-0.003
249.78	-0.003
250.00	-0.003
250.21	-0.002
250.42	-0.002
250.64	-0.002
250.85	-0.001
251.06	-0.001
251.28	-0.001
251.49	-0.001
251.70	-0.001
251.92	-0.000
252.13	0.000
252.34	0.000
252.55	0.000
252.77	0.000
252.98	0.001
253.19	0.001
253.41	0.001
253.62	0.001
253.83	0.001
254.05	0.002
254.26	0.001
254.47	0.001
254.68	0.001
254.90	0.001
255.11	0.002
255.32	0.002
255.54	0.001
255.75	0.002
255.96	0.002
256.17	0.002
256.39	0.002
256.60	0.002
256.81	0.003
257.03	0.003
257.24	0.003
257.45	0.003
257.66	0.002
257.88	0.002
258.09	0.002
258.30	0.002
258.51	0.002
258.73	0.002
258.94	0.002
259.15	0.001
259.37	0.001
259.58	0.001
259.79	0.001
260.00	0.001
260.22	0.001
260.43	0.001
260.64	0.001
260.85	0.001
261.07	0.001
261.28	0.001
261.49	0.001
261.71	0.001
261.92	0.002
262.13	0.002
262.34	0.002
262.56	0.001
262.77	0.002
262.98	0.002
263.19	0.001
263.41	0.001
263.62	0.001
263.83	0.001
264.04	0.000
264.26	0.000
264.47	-0.000
264.68	-0.000
264.89	-0.000
265.11	-0.001
265.32	-0.001
265.53	-0.000
265.74	-0.000
265.96	-0.001
266.17	-0.000
266.38	-0.000
266.59	-0.000
266.81	-0.000
267.02	-0.000
267.23	-0.001
267.44	-0.001
267.65	-0.002
267.87	-0.002
268.08	-0.002
268.29	-0.002
268.50	-0.002
268.72	-0.002
268.93	-0.002
269.14	-0.002
269.35	-0.003
269.57	-0.003
269.78	-0.003
269.99	-0.003
270.20	-0.002
270.41	-0.002
270.63	-0.003
270.84	-0.003
271.05	-0.003
271.26	-0.003
271.48	-0.004
271.69	-0.004
271.90	-0.004
272.11	-0.004
272.32	-0.005
272.54	-0.005
272.75	-0.005
272.96	-0.005
273.17	-0.005
273.39	-0.005
273.60	-0.005
273.81	-0.005
274.02	-0.005
274.23	-0.005
274.45	-0.005
274.66	-0.005
274.87	-0.005
275.08	-0.005
275.29	-0.005
275.51	-0.005
275.72	-0.006
275.93	-0.006
276.14	-0.005
276.35	-0.005
276.57	-0.005
276.78	-0.005
276.99	-0.005
277.20	-0.005
277.41	-0.005
277.63	-0.005
277.84	-0.005
278.05	-0.005
278.26	-0.005
278.47	-0.005
278.69	-0.005
278.90	-0.005
279.11	-0.005
279.32	-0.004
279.53	-0.004
279.74	-0.004
279.96	-0.004
280.17	-0.004
280.38	-0.003
280.59	-0.003
280.80	-0.003
281.02	-0.003
281.23	-0.003
281.44	-0.003
281.65	-0.003
281.86	-0.003
282.07	-0.003
282.29	-0.003
282.50	-0.003
282.71	-0.003
282.92	-0.002
283.13	-0.002
283.35	-0.002
283.56	-0.002
283.77	-0.002
283.98	-0.001
284.19	-0.001
284.40	-0.001
284.62	-0.001
284.83	-0.001
285.04	-0.000
285.25	-0.000
285.46	0.000
285.67	0.001
285.88	0.001
286.10	0.001
286.31	0.001
286.52	0.002
286.73	0.002
286.94	0.002
287.15	0.003
287.37	0.003
287.58	0.003
287.79	0.004
288.00	0.004
288.21	0.004
288.42	0.005
288.63	0.005
288.85	0.005
289.06	0.006
289.27	0.006
289.48	0.006
289.69	0.006
289.90	0.007
290.11	0.007
290.33	0.007
290.54	0.007
290.75	0.008
290.96	0.008
291.17	0.008
291.38	0.008
291.59	0.009
291.81	0.009
292.02	0.009
292.23	0.009
292.44	0.009
292.65	0.009
292.86	0.009
293.07	0.009
293.28	0.010
293.50	0.010
293.71	0.010
293.92	0.010
294.13	0.010
294.34	0.011
294.55	0.011
294.76	0.011
294.97	0.011
295.19	0.011
295.40	0.011
295.61	0.010
295.82	0.011
296.03	0.010
296.24	0.011
296.45	0.010
296.66	0.010
296.87	0.010
297.09	0.010
297.30	0.010
297.51	0.010
297.72	0.010
297.93	0.010
298.14	0.010
298.35	0.011
298.56	0.010
298.77	0.011
298.99	0.011
299.20	0.011
299.41	0.011
299.62	0.011
299.83	0.011
300.04	0.011
300.25	0.011
300.46	0.011
300.67	0.011
300.88	0.011
301.10	0.011
301.31	0.011
301.52	0.011
301.73	0.011
301.94	0.011
302.15	0.011
302.36	0.011
302.57	0.011
302.78	0.011
302.99	0.011
303.20	0.011
303.41	0.011
303.63	0.011
303.84	0.011
304.05	0.011
304.26	0.011
304.47	0.011
304.68	0.011
304.89	0.011
305.10	0.011
305.31	0.011
305.52	0.011
305.73	0.011
305.94	0.011
306.15	0.011
306.37	0.011
306.58	0.012
306.79	0.012
307.00	0.012
307.21	0.012
307.42	0.012
307.63	0.012
307.84	0.012
308.05	0.012
308.26	0.012
308.47	0.012
308.68	0.012
308.89	0.012
309.10	0.012
309.31	0.012
309.52	0.012
309.73	0.012
309.95	0.012
310.16	0.011
310.37	0.011
310.58	0.012
310.79	0.011
311.00	0.011
311.21	0.011
311.42	0.011
311.63	0.011
311.84	0.011
312.05	0.011
312.26	0.011
312.47	0.012
312.68	0.012
312.89	0.012
313.10	0.012
313.31	0.012
313.52	0.012
313.73	0.012
313.94	0.012
314.15	0.012
314.36	0.013
314.57	0.012
314.78	0.013
314.99	0.012
315.21	0.013
315.42	0.012
315.63	0.012
315.84	0.012
316.05	0.012
316.26	0.012
316.47	0.012
316.68	0.012
316.89	0.012
317.10	0.012
317.31	0.012
317.52	0.012
317.73	0.012
317.94	0.012
318.15	0.012
318.36	0.012
318.57	0.012
318.78	0.012
318.99	0.012
319.20	0.012
319.41	0.012
319.62	0.012
319.83	0.012
320.04	0.012
320.25	0.013
320.46	0.012
320.67	0.012
320.88	0.012
321.09	0.012
321.30	0.013
321.51	0.012
321.72	0.012
321.93	0.012
322.14	0.012
322.35	0.012
322.56	0.012
322.77	0.012
322.98	0.012
323.19	0.012
323.40	0.012
323.61	0.012
323.82	0.013
324.03	0.013
324.24	0.013
324.45	0.013
324.66	0.012
324.87	0.012
325.08	0.012
325.29	0.012
325.50	0.012
325.71	0.012
325.92	0.012
326.13	0.012
326.34	0.012
326.55	0.012
326.76	0.012
326.97	0.012
327.18	0.012
327.39	0.012
327.60	0.012
327.80	0.012
328.01	0.012
328.22	0.012
328.43	0.012
328.64	0.012
328.85	0.012
329.06	0.012
329.27	0.012
329.48	0.012
329.69	0.012
329.90	0.012
330.11	0.012
330.32	0.012
330.53	0.012
330.74	0.012
330.95	0.012
331.16	0.012
331.37	0.012
331.58	0.012
331.79	0.012
332.00	0.012
332.21	0.012
332.42	0.012
332.63	0.012
332.83	0.012
333.04	0.012
333.25	0.012
333.46	0.012
333.67	0.012
333.88	0.012
334.09	0.012
334.30	0.012
334.51	0.012
334.72	0.011
334.93	0.011
335.14	0.011
335.35	0.011
335.56	0.011
335.77	0.011
335.98	0.011
336.18	0.011
336.39	0.011
336.60	0.011
336.81	0.011
337.02	0.011
337.23	0.011
337.44	0.011
337.65	0.011
337.86	0.011
338.07	0.011
338.28	0.011
338.49	0.011
338.70	0.011
338.91	0.011
339.11	0.011
339.32	0.010
339.53	0.010
339.74	0.010
339.95	0.010
340.16	0.010
340.37	0.010
340.58	0.010
340.79	0.010
341.00	0.010
341.21	0.010
341.41	0.010
341.62	0.010
341.83	0.009
342.04	0.009
342.25	0.009
342.46	0.009
342.67	0.009
342.88	0.009
343.09	0.009
343.30	0.009
343.50	0.009
343.71	0.009
343.92	0.010
344.13	0.010
344.34	0.010
344.55	0.010
344.76	0.010
344.97	0.009
345.18	0.009
345.38	0.009
345.59	0.009
345.80	0.009
346.01	0.009
346.22	0.009
346.43	0.009
346.64	0.009
346.85	0.009
347.06	0.009
347.26	0.008
347.47	0.008
347.68	0.008
347.89	0.008
348.10	0.008
348.31	0.008
348.52	0.008
348.73	0.008
348.93	0.008
349.14	0.008
349.35	0.008
349.56	0.008
349.77	0.008
349.98	0.008
350.19	0.008
350.39	0.008
350.60	0.008
350.81	0.008
351.02	0.008
351.23	0.008
351.44	0.008
351.65	0.008
351.86	0.008
352.06	0.008
352.27	0.008
352.48	0.008
352.69	0.008
352.90	0.008
353.11	0.008
353.31	0.008
353.52	0.008
353.73	0.008
353.94	0.007
354.15	0.007
354.36	0.007
354.57	0.007
354.77	0.007
354.98	0.007
355.19	0.007
355.40	0.007
355.61	0.007
355.82	0.007
356.02	0.007
356.23	0.007
356.44	0.007
356.65	0.007
356.86	0.007
357.07	0.007
357.27	0.007
357.48	0.007
357.69	0.007
357.90	0.007
358.11	0.007
358.32	0.007
358.52	0.007
358.73	0.007
358.94	0.007
359.15	0.007
359.36	0.007
359.56	0.006
359.77	0.006
359.98	0.006
360.19	0.006
360.40	0.006
360.61	0.006
360.81	0.006
361.02	0.007
361.23	0.007
361.44	0.007
361.65	0.006
361.85	0.007
362.06	0.007
362.27	0.007
362.48	0.007
362.69	0.006
362.89	0.006
363.10	0.006
363.31	0.006
363.52	0.006
363.73	0.006
363.93	0.006
364.14	0.006
364.35	0.006
364.56	0.006
364.77	0.006
364.97	0.006
365.18	0.006
365.39	0.006
365.60	0.006
365.81	0.006
366.01	0.006
366.22	0.006
366.43	0.006
366.64	0.006
366.84	0.006
367.05	0.006
367.26	0.006
367.47	0.006
367.68	0.006
367.88	0.006
368.09	0.006
368.30	0.006
368.51	0.006
368.71	0.006
368.92	0.006
369.13	0.006
369.34	0.006
369.55	0.006
369.75	0.006
369.96	0.006
370.17	0.006
370.38	0.006
370.58	0.006
370.79	0.006
371.00	0.006
371.21	0.006
371.41	0.006
371.62	0.006
371.83	0.006
372.04	0.006
372.24	0.006
372.45	0.006
372.66	0.006
372.87	0.006
373.07	0.006
373.28	0.006
373.49	0.006
373.70	0.006
373.90	0.006
374.11	0.005
374.32	0.006
374.53	0.005
374.73	0.005
374.94	0.005
375.15	0.006
375.36	0.005
375.56	0.005
375.77	0.005
375.98	0.005
376.19	0.005
376.39	0.005
376.60	0.005
376.81	0.005
377.02	0.005
377.22	0.005
377.43	0.005
377.64	0.005
377.84	0.005
378.05	0.005
378.26	0.005
378.47	0.005
378.67	0.005
378.88	0.005
379.09	0.005
379.30	0.005
379.50	0.005
379.71	0.005
379.92	0.005
380.12	0.005
380.33	0.005
380.54	0.005
380.75	0.005
380.95	0.005
381.16	0.005
381.37	0.005
381.57	0.005
381.78	0.005
381.99	0.005
382.20	0.005
382.40	0.005
382.61	0.005
382.82	0.005
383.02	0.005
383.23	0.005
383.44	0.005
383.64	0.005
383.85	0.005
384.06	0.005
384.27	0.005
384.47	0.005
384.68	0.005
384.89	0.005
385.09	0.005
385.30	0.004
385.51	0.004
385.71	0.004
385.92	0.004
386.13	0.004
386.33	0.004
386.54	0.004
386.75	0.004
386.95	0.004
387.16	0.004
387.37	0.004
387.58	0.004
387.78	0.004
387.99	0.004
388.20	0.004
388.40	0.004
388.61	0.004
388.82	0.004
389.02	0.004
389.23	0.004
389.44	0.004
389.64	0.004
389.85	0.004
390.06	0.004
390.26	0.004
390.47	0.004
390.68	0.004
390.88	0.004
391.09	0.004
391.30	0.004
391.50	0.004
391.71	0.004
391.92	0.004
392.12	0.004
392.33	0.004
392.53	0.004
392.74	0.004
392.95	0.005
393.15	0.004
393.36	0.004
393.57	0.004
393.77	0.004
393.98	0.004
394.19	0.004
394.39	0.004
394.60	0.004
394.81	0.004
395.01	0.004
395.22	0.004
395.43	0.004
395.63	0.004
395.84	0.004
396.04	0.004
396.25	0.004
396.46	0.004
396.66	0.004
396.87	0.004
397.08	0.004
397.28	0.004
397.49	0.004
397.69	0.004
397.90	0.004
398.11	0.004
398.31	0.004
398.52	0.004
398.73	0.004
398.93	0.004
399.14	0.004
399.34	0.004
399.55	0.004
399.76	0.004
399.96	0.004
400.17	0.004
400.37	0.004
400.58	0.004
400.79	0.004
400.99	0.004
401.20	0.004
401.41	0.004
401.61	0.004
401.82	0.004
402.02	0.004
402.23	0.004
402.44	0.004
402.64	0.004
402.85	0.004
403.05	0.004
403.26	0.004
403.47	0.004
403.67	0.004
403.88	0.004
404.08	0.004
404.29	0.004
404.50	0.004
404.70	0.003
404.91	0.003
405.11	0.003
405.32	0.003
405.52	0.003
405.73	0.003
405.94	0.003
406.14	0.003
406.35	0.003
406.55	0.003
406.76	0.003
406.97	0.003
407.17	0.003
407.38	0.003
407.58	0.003
407.79	0.003
407.99	0.004
408.20	0.003
408.41	0.004
408.61	0.004
408.82	0.004
409.02	0.004
409.23	0.004
409.43	0.004
409.64	0.003
409.84	0.003
410.05	0.003
410.26	0.003
410.46	0.003
410.67	0.003
410.87	0.003
411.08	0.003
411.28	0.003
411.49	0.003
411.69	0.003
411.90	0.003
412.11	0.003
412.31	0.003
412.52	0.003
412.72	0.003
412.93	0.003
413.13	0.003
413.34	0.003
413.54	0.003
413.75	0.003
413.95	0.003
414.16	0.003
414.37	0.003
414.57	0.003
414.78	0.003
414.98	0.003
415.19	0.003
415.39	0.003
415.60	0.003
415.80	0.003
416.01	0.003
416.21	0.003
416.42	0.003
416.62	0.003
416.83	0.003
417.03	0.003
417.24	0.003
417.44	0.003
417.65	0.003
417.86	0.003
418.06	0.003
418.27	0.003
418.47	0.003
418.68	0.003
418.88	0.003
419.09	0.003
419.29	0.003
419.50	0.003
419.70	0.003
419.91	0.003
420.11	0.003
420.32	0.003
420.52	0.002
420.73	0.002
420.93	0.002
421.14	0.002
421.34	0.003
421.55	0.003
421.75	0.003
421.96	0.002
422.16	0.003
422.37	0.003
422.57	0.003
422.78	0.003
422.98	0.003
423.19	0.003
423.39	0.003
423.60	0.003
423.80	0.003
424.01	0.003
424.21	0.003
424.42	0.003
424.62	0.003
424.83	0.003
425.03	0.003
425.23	0.003
425.44	0.003
425.64	0.003
425.85	0.003
426.05	0.003
426.26	0.003
426.46	0.003
426.67	0.003
426.87	0.003
427.08	0.002
427.28	0.002
427.49	0.002
427.69	0.002
427.90	0.002
428.10	0.002
428.31	0.002
428.51	0.002
428.71	0.002
428.92	0.002
429.12	0.002
429.33	0.002
429.53	0.002
429.74	0.002
429.94	0.002
430.15	0.002
430.35	0.003
430.56	0.003
430.76	0.003
430.96	0.003
431.17	0.003
431.37	0.003
431.58	0.003
431.78	0.003
431.99	0.003
432.19	0.003
432.40	0.003
432.60	0.003
432.80	0.003
433.01	0.003
433.21	0.003
433.42	0.002
433.62	0.003
433.83	0.002
434.03	0.003
434.23	0.003
434.44	0.003
434.64	0.003
434.85	0.003
435.05	0.003
435.26	0.003
435.46	0.003
435.66	0.003
435.87	0.003
436.07	0.003
436.28	0.003
436.48	0.002
436.69	0.002
436.89	0.002
437.09	0.002
437.30	0.002
437.50	0.002
437.71	0.002
437.91	0.002
438.11	0.002
438.32	0.002
438.52	0.002
438.73	0.002
438.93	0.002
439.13	0.002
439.34	0.002
439.54	0.002
439.75	0.002
439.95	0.002
440.15	0.002
440.36	0.003
440.56	0.003
440.77	0.002
440.97	0.003
441.17	0.003
441.38	0.003
441.58	0.002
441.79	0.002
441.99	0.002
442.19	0.002
442.40	0.002
442.60	0.002
442.81	0.002
443.01	0.002
443.21	0.002
443.42	0.002
443.62	0.002
443.82	0.002
444.03	0.002
444.23	0.002
444.44	0.002
444.64	0.002
444.84	0.002
445.05	0.002
445.25	0.002
445.45	0.002
445.66	0.002
445.86	0.002
446.06	0.002
446.27	0.002
446.47	0.002
446.68	0.002
446.88	0.002
447.08	0.002
447.29	0.002
447.49	0.002
447.69	0.002
447.90	0.002
448.10	0.002
448.30	0.002
448.51	0.002
448.71	0.002
448.91	0.002
449.12	0.002
449.32	0.002
449.52	0.002
449.73	0.002
449.93	0.002
450.14	0.002
450.34	0.002
450.54	0.002
450.75	0.002
450.95	0.002
451.15	0.002
451.36	0.002
451.56	0.002
451.76	0.002
451.97	0.002
452.17	0.002
452.37	0.002
452.58	0.002
452.78	0.002
452.98	0.002
453.19	0.002
453.39	0.002
453.59	0.002
453.79	0.002
454.00	0.002
454.20	0.002
454.40	0.002
454.61	0.002
454.81	0.002
455.01	0.002
455.22	0.002
455.42	0.002
455.62	0.002
455.83	0.002
456.03	0.002
456.23	0.002
456.44	0.002
456.64	0.002
456.84	0.002
457.04	0.002
457.25	0.002
457.45	0.002
457.65	0.002
457.86	0.002
458.06	0.002
458.26	0.002
458.47	0.002
458.67	0.002
458.87	0.002
459.07	0.002
459.28	0.002
459.48	0.002
459.68	0.002
459.89	0.002
460.09	0.002
460.29	0.002
460.49	0.002
460.70	0.002
460.90	0.002
461.10	0.002
461.31	0.002
461.51	0.002
461.71	0.002
461.91	0.002
462.12	0.002
462.32	0.002
462.52	0.002
462.72	0.002
462.93	0.002
463.13	0.002
463.33	0.002
463.53	0.002
