SpectraSuite Data File
++++++++++++++++++++++++++++++++++++
Date: Mon Jun 15 09:31:40 PDT 2015
User: introlabs
Dark Spectrum Present: Yes
Reference Spectrum Present: Yes
Number of Sampled Component Spectra: 1
Spectrometers: USB4H08886
Integration Time (usec): 44366 (USB4H08886)
Spectra Averaged: 20 (USB4H08886)
Boxcar Smoothing: 5 (USB4H08886)
Correct for Electrical Dark: Yes (USB4H08886)
Strobe/Lamp Enabled: No (USB4H08886)
Correct for Detector Non-linearity: Yes (USB4H08886)
Correct for Stray Light: Yes (USB4H08886)
Number of Pixels in Processed Spectrum: 3648
>>>>>Begin Processed Spectral Data<<<<<
178.14	0.493
178.36	0.493
178.57	0.493
178.79	-0.000
179.01	-0.000
179.22	0.531
179.44	-0.000
179.65	-0.162
179.87	-0.053
180.08	0.160
180.30	0.371
180.52	0.341
180.73	0.292
180.95	0.179
181.16	0.115
181.38	0.072
181.59	0.085
181.81	0.080
182.03	0.082
182.24	0.093
182.46	0.088
182.67	0.071
182.89	0.066
183.10	0.067
183.32	0.058
183.54	0.054
183.75	0.058
183.97	0.066
184.18	0.065
184.40	0.067
184.61	0.073
184.83	0.074
185.04	0.078
185.26	0.077
185.48	0.071
185.69	0.080
185.91	0.074
186.12	0.071
186.34	0.065
186.55	0.063
186.77	0.061
186.98	0.046
187.20	0.036
187.42	0.038
187.63	0.037
187.85	0.050
188.06	0.050
188.28	0.057
188.49	0.059
188.71	0.056
188.92	0.062
189.14	0.061
189.36	0.073
189.57	0.085
189.79	0.077
190.00	0.068
190.22	0.058
190.43	0.060
190.65	0.051
190.86	0.055
191.08	0.059
191.29	0.052
191.51	0.055
191.72	0.054
191.94	0.046
192.16	0.052
192.37	0.058
192.59	0.070
192.80	0.063
193.02	0.076
193.23	0.079
193.45	0.074
193.66	0.077
193.88	0.070
194.09	0.066
194.31	0.073
194.52	0.066
194.74	0.065
194.95	0.052
195.17	0.062
195.38	0.046
195.60	0.035
195.81	0.047
196.03	0.046
196.25	0.058
196.46	0.055
196.68	0.051
196.89	0.057
197.11	0.062
197.32	0.064
197.54	0.055
197.75	0.076
197.97	0.076
198.18	0.069
198.40	0.073
198.61	0.065
198.83	0.061
199.04	0.063
199.26	0.061
199.47	0.058
199.69	0.067
199.90	0.077
200.12	0.064
200.33	0.071
200.55	0.070
200.76	0.066
200.98	0.060
201.19	0.062
201.41	0.066
201.62	0.073
201.84	0.076
202.05	0.072
202.27	0.066
202.48	0.067
202.70	0.058
202.91	0.064
203.13	0.057
203.34	0.050
203.56	0.053
203.77	0.051
203.99	0.045
204.20	0.038
204.42	0.036
204.63	0.039
204.85	0.040
205.06	0.043
205.28	0.038
205.49	0.046
205.71	0.055
205.92	0.061
206.14	0.057
206.35	0.066
206.56	0.073
206.78	0.066
206.99	0.058
207.21	0.060
207.42	0.062
207.64	0.061
207.85	0.065
208.07	0.067
208.28	0.068
208.50	0.076
208.71	0.074
208.93	0.078
209.14	0.090
209.36	0.093
209.57	0.096
209.79	0.103
210.00	0.105
210.22	0.102
210.43	0.102
210.64	0.096
210.86	0.086
211.07	0.083
211.29	0.078
211.50	0.077
211.72	0.080
211.93	0.073
212.15	0.068
212.36	0.061
212.58	0.063
212.79	0.066
213.01	0.061
213.22	0.060
213.43	0.063
213.65	0.062
213.86	0.059
214.08	0.062
214.29	0.067
214.51	0.064
214.72	0.070
214.94	0.067
215.15	0.069
215.36	0.071
215.58	0.081
215.79	0.077
216.01	0.079
216.22	0.086
216.44	0.079
216.65	0.073
216.87	0.079
217.08	0.078
217.29	0.087
217.51	0.083
217.72	0.087
217.94	0.085
218.15	0.089
218.37	0.085
218.58	0.081
218.80	0.085
219.01	0.083
219.22	0.076
219.44	0.076
219.65	0.066
219.87	0.070
220.08	0.070
220.30	0.061
220.51	0.057
220.72	0.058
220.94	0.053
221.15	0.052
221.37	0.051
221.58	0.056
221.79	0.056
222.01	0.053
222.22	0.044
222.44	0.040
222.65	0.042
222.87	0.043
223.08	0.047
223.29	0.056
223.51	0.056
223.72	0.064
223.94	0.062
224.15	0.062
224.36	0.067
224.58	0.066
224.79	0.074
225.01	0.075
225.22	0.075
225.44	0.071
225.65	0.068
225.86	0.072
226.08	0.072
226.29	0.072
226.51	0.075
226.72	0.079
226.93	0.083
227.15	0.079
227.36	0.078
227.58	0.075
227.79	0.077
228.00	0.071
228.22	0.062
228.43	0.060
228.65	0.063
228.86	0.061
229.07	0.058
229.29	0.057
229.50	0.051
229.72	0.052
229.93	0.054
230.14	0.052
230.36	0.053
230.57	0.057
230.78	0.054
231.00	0.050
231.21	0.047
231.43	0.047
231.64	0.047
231.85	0.052
232.07	0.054
232.28	0.053
232.50	0.053
232.71	0.054
232.92	0.054
233.14	0.055
233.35	0.056
233.56	0.056
233.78	0.056
233.99	0.054
234.21	0.053
234.42	0.053
234.63	0.054
234.85	0.053
235.06	0.053
235.27	0.054
235.49	0.055
235.70	0.054
235.91	0.053
236.13	0.055
236.34	0.054
236.56	0.054
236.77	0.053
236.98	0.053
237.20	0.053
237.41	0.052
237.62	0.053
237.84	0.052
238.05	0.052
238.26	0.051
238.48	0.051
238.69	0.053
238.91	0.053
239.12	0.055
239.33	0.054
239.55	0.056
239.76	0.056
239.97	0.056
240.19	0.058
240.40	0.058
240.61	0.060
240.83	0.060
241.04	0.060
241.25	0.061
241.47	0.061
241.68	0.063
241.89	0.063
242.11	0.064
242.32	0.065
242.53	0.065
242.75	0.066
242.96	0.066
243.17	0.067
243.39	0.067
243.60	0.067
243.81	0.067
244.03	0.067
244.24	0.067
244.45	0.068
244.67	0.069
244.88	0.069
245.09	0.070
245.31	0.071
245.52	0.071
245.73	0.072
245.95	0.072
246.16	0.073
246.37	0.074
246.59	0.074
246.80	0.074
247.01	0.075
247.23	0.075
247.44	0.074
247.65	0.075
247.87	0.075
248.08	0.075
248.29	0.075
248.51	0.075
248.72	0.075
248.93	0.075
249.15	0.076
249.36	0.076
249.57	0.076
249.78	0.076
250.00	0.076
250.21	0.077
250.42	0.077
250.64	0.077
250.85	0.078
251.06	0.077
251.28	0.078
251.49	0.077
251.70	0.077
251.92	0.078
252.13	0.078
252.34	0.078
252.55	0.078
252.77	0.078
252.98	0.078
253.19	0.077
253.41	0.078
253.62	0.077
253.83	0.078
254.05	0.077
254.26	0.077
254.47	0.077
254.68	0.077
254.90	0.076
255.11	0.077
255.32	0.077
255.54	0.078
255.75	0.078
255.96	0.078
256.17	0.078
256.39	0.078
256.60	0.078
256.81	0.078
257.03	0.078
257.24	0.078
257.45	0.077
257.66	0.077
257.88	0.076
258.09	0.076
258.30	0.075
258.51	0.075
258.73	0.075
258.94	0.075
259.15	0.075
259.37	0.074
259.58	0.074
259.79	0.073
260.00	0.074
260.22	0.073
260.43	0.073
260.64	0.073
260.85	0.072
261.07	0.072
261.28	0.072
261.49	0.071
261.71	0.071
261.92	0.071
262.13	0.071
262.34	0.071
262.56	0.071
262.77	0.071
262.98	0.070
263.19	0.070
263.41	0.069
263.62	0.069
263.83	0.069
264.04	0.068
264.26	0.068
264.47	0.067
264.68	0.067
264.89	0.067
265.11	0.067
265.32	0.067
265.53	0.066
265.74	0.066
265.96	0.066
266.17	0.066
266.38	0.066
266.59	0.065
266.81	0.065
267.02	0.065
267.23	0.064
267.44	0.063
267.65	0.062
267.87	0.062
268.08	0.061
268.29	0.061
268.50	0.061
268.72	0.060
268.93	0.060
269.14	0.059
269.35	0.059
269.57	0.059
269.78	0.058
269.99	0.058
270.20	0.058
270.41	0.058
270.63	0.058
270.84	0.057
271.05	0.057
271.26	0.057
271.48	0.056
271.69	0.056
271.90	0.056
272.11	0.055
272.32	0.055
272.54	0.054
272.75	0.054
272.96	0.054
273.17	0.054
273.39	0.054
273.60	0.053
273.81	0.053
274.02	0.053
274.23	0.053
274.45	0.053
274.66	0.053
274.87	0.052
275.08	0.052
275.29	0.052
275.51	0.052
275.72	0.052
275.93	0.051
276.14	0.052
276.35	0.052
276.57	0.051
276.78	0.051
276.99	0.051
277.20	0.051
277.41	0.051
277.63	0.051
277.84	0.051
278.05	0.051
278.26	0.052
278.47	0.051
278.69	0.052
278.90	0.052
279.11	0.052
279.32	0.052
279.53	0.052
279.74	0.053
279.96	0.053
280.17	0.053
280.38	0.053
280.59	0.053
280.80	0.053
281.02	0.053
281.23	0.053
281.44	0.053
281.65	0.053
281.86	0.053
282.07	0.053
282.29	0.053
282.50	0.054
282.71	0.054
282.92	0.054
283.13	0.054
283.35	0.055
283.56	0.055
283.77	0.055
283.98	0.055
284.19	0.055
284.40	0.056
284.62	0.056
284.83	0.056
285.04	0.056
285.25	0.057
285.46	0.057
285.67	0.058
285.88	0.058
286.10	0.058
286.31	0.059
286.52	0.060
286.73	0.060
286.94	0.061
287.15	0.062
287.37	0.062
287.58	0.063
287.79	0.063
288.00	0.064
288.21	0.064
288.42	0.065
288.63	0.066
288.85	0.066
289.06	0.067
289.27	0.067
289.48	0.067
289.69	0.068
289.90	0.068
290.11	0.068
290.33	0.069
290.54	0.069
290.75	0.069
290.96	0.070
291.17	0.070
291.38	0.070
291.59	0.070
291.81	0.070
292.02	0.071
292.23	0.071
292.44	0.071
292.65	0.071
292.86	0.071
293.07	0.071
293.28	0.072
293.50	0.072
293.71	0.072
293.92	0.072
294.13	0.073
294.34	0.073
294.55	0.073
294.76	0.073
294.97	0.073
295.19	0.073
295.40	0.073
295.61	0.073
295.82	0.073
296.03	0.073
296.24	0.073
296.45	0.073
296.66	0.073
296.87	0.072
297.09	0.072
297.30	0.072
297.51	0.073
297.72	0.072
297.93	0.072
298.14	0.072
298.35	0.072
298.56	0.072
298.77	0.072
298.99	0.072
299.20	0.072
299.41	0.072
299.62	0.072
299.83	0.072
300.04	0.073
300.25	0.073
300.46	0.072
300.67	0.073
300.88	0.073
301.10	0.072
301.31	0.072
301.52	0.072
301.73	0.072
301.94	0.072
302.15	0.072
302.36	0.071
302.57	0.071
302.78	0.071
302.99	0.071
303.20	0.071
303.41	0.071
303.63	0.071
303.84	0.071
304.05	0.071
304.26	0.071
304.47	0.071
304.68	0.071
304.89	0.071
305.10	0.071
305.31	0.071
305.52	0.071
305.73	0.071
305.94	0.071
306.15	0.071
306.37	0.071
306.58	0.071
306.79	0.071
307.00	0.071
307.21	0.071
307.42	0.071
307.63	0.071
307.84	0.071
308.05	0.070
308.26	0.070
308.47	0.070
308.68	0.070
308.89	0.070
309.10	0.070
309.31	0.070
309.52	0.070
309.73	0.069
309.95	0.069
310.16	0.069
310.37	0.069
310.58	0.069
310.79	0.069
311.00	0.069
311.21	0.069
311.42	0.069
311.63	0.069
311.84	0.069
312.05	0.069
312.26	0.069
312.47	0.069
312.68	0.069
312.89	0.069
313.10	0.069
313.31	0.069
313.52	0.069
313.73	0.069
313.94	0.069
314.15	0.069
314.36	0.069
314.57	0.069
314.78	0.069
314.99	0.069
315.21	0.069
315.42	0.068
315.63	0.069
315.84	0.068
316.05	0.068
316.26	0.068
316.47	0.068
316.68	0.068
316.89	0.068
317.10	0.068
317.31	0.068
317.52	0.068
317.73	0.068
317.94	0.068
318.15	0.068
318.36	0.068
318.57	0.068
318.78	0.068
318.99	0.068
319.20	0.068
319.41	0.068
319.62	0.068
319.83	0.068
320.04	0.068
320.25	0.068
320.46	0.067
320.67	0.067
320.88	0.067
321.09	0.067
321.30	0.067
321.51	0.067
321.72	0.067
321.93	0.067
322.14	0.067
322.35	0.067
322.56	0.067
322.77	0.067
322.98	0.067
323.19	0.067
323.40	0.067
323.61	0.067
323.82	0.067
324.03	0.067
324.24	0.067
324.45	0.067
324.66	0.067
324.87	0.067
325.08	0.067
325.29	0.067
325.50	0.066
325.71	0.066
325.92	0.067
326.13	0.066
326.34	0.066
326.55	0.066
326.76	0.066
326.97	0.066
327.18	0.066
327.39	0.066
327.60	0.066
327.80	0.066
328.01	0.066
328.22	0.066
328.43	0.066
328.64	0.066
328.85	0.066
329.06	0.066
329.27	0.066
329.48	0.066
329.69	0.066
329.90	0.066
330.11	0.066
330.32	0.066
330.53	0.066
330.74	0.066
330.95	0.066
331.16	0.066
331.37	0.066
331.58	0.066
331.79	0.066
332.00	0.066
332.21	0.066
332.42	0.066
332.63	0.066
332.83	0.066
333.04	0.066
333.25	0.065
333.46	0.065
333.67	0.065
333.88	0.065
334.09	0.065
334.30	0.065
334.51	0.065
334.72	0.065
334.93	0.065
335.14	0.065
335.35	0.065
335.56	0.065
335.77	0.065
335.98	0.065
336.18	0.065
336.39	0.065
336.60	0.065
336.81	0.065
337.02	0.065
337.23	0.065
337.44	0.065
337.65	0.065
337.86	0.065
338.07	0.065
338.28	0.065
338.49	0.065
338.70	0.065
338.91	0.065
339.11	0.065
339.32	0.065
339.53	0.065
339.74	0.065
339.95	0.065
340.16	0.065
340.37	0.065
340.58	0.065
340.79	0.065
341.00	0.065
341.21	0.065
341.41	0.065
341.62	0.065
341.83	0.065
342.04	0.064
342.25	0.065
342.46	0.065
342.67	0.065
342.88	0.065
343.09	0.065
343.30	0.065
343.50	0.065
343.71	0.065
343.92	0.065
344.13	0.065
344.34	0.065
344.55	0.065
344.76	0.065
344.97	0.065
345.18	0.065
345.38	0.065
345.59	0.065
345.80	0.065
346.01	0.065
346.22	0.065
346.43	0.065
346.64	0.065
346.85	0.065
347.06	0.065
347.26	0.065
347.47	0.064
347.68	0.064
347.89	0.064
348.10	0.064
348.31	0.064
348.52	0.064
348.73	0.064
348.93	0.064
349.14	0.064
349.35	0.064
349.56	0.064
349.77	0.064
349.98	0.064
350.19	0.064
350.39	0.064
350.60	0.064
350.81	0.064
351.02	0.064
351.23	0.064
351.44	0.064
351.65	0.064
351.86	0.064
352.06	0.064
352.27	0.064
352.48	0.064
352.69	0.064
352.90	0.064
353.11	0.064
353.31	0.064
353.52	0.064
353.73	0.064
353.94	0.064
354.15	0.064
354.36	0.064
354.57	0.064
354.77	0.064
354.98	0.064
355.19	0.064
355.40	0.064
355.61	0.064
355.82	0.064
356.02	0.064
356.23	0.064
356.44	0.064
356.65	0.064
356.86	0.064
357.07	0.064
357.27	0.064
357.48	0.064
357.69	0.064
357.90	0.064
358.11	0.064
358.32	0.064
358.52	0.064
358.73	0.064
358.94	0.064
359.15	0.064
359.36	0.064
359.56	0.064
359.77	0.064
359.98	0.064
360.19	0.064
360.40	0.064
360.61	0.064
360.81	0.064
361.02	0.064
361.23	0.064
361.44	0.064
361.65	0.064
361.85	0.064
362.06	0.064
362.27	0.064
362.48	0.064
362.69	0.064
362.89	0.064
363.10	0.064
363.31	0.064
363.52	0.064
363.73	0.064
363.93	0.064
364.14	0.064
364.35	0.064
364.56	0.063
364.77	0.063
364.97	0.063
365.18	0.063
365.39	0.063
365.60	0.063
365.81	0.063
366.01	0.063
366.22	0.063
366.43	0.063
366.64	0.063
366.84	0.063
367.05	0.063
367.26	0.063
367.47	0.063
367.68	0.063
367.88	0.063
368.09	0.063
368.30	0.063
368.51	0.063
368.71	0.063
368.92	0.063
369.13	0.063
369.34	0.064
369.55	0.064
369.75	0.063
369.96	0.064
370.17	0.063
370.38	0.063
370.58	0.063
370.79	0.063
371.00	0.063
371.21	0.063
371.41	0.063
371.62	0.063
371.83	0.063
372.04	0.063
372.24	0.063
372.45	0.063
372.66	0.063
372.87	0.063
373.07	0.063
373.28	0.063
373.49	0.063
373.70	0.063
373.90	0.063
374.11	0.063
374.32	0.063
374.53	0.063
374.73	0.063
374.94	0.063
375.15	0.063
375.36	0.063
375.56	0.063
375.77	0.063
375.98	0.062
376.19	0.062
376.39	0.062
376.60	0.062
376.81	0.062
377.02	0.062
377.22	0.062
377.43	0.062
377.64	0.062
377.84	0.062
378.05	0.062
378.26	0.062
378.47	0.062
378.67	0.062
378.88	0.062
379.09	0.062
379.30	0.062
379.50	0.062
379.71	0.062
379.92	0.062
380.12	0.062
380.33	0.062
380.54	0.062
380.75	0.062
380.95	0.062
381.16	0.062
381.37	0.062
381.57	0.062
381.78	0.062
381.99	0.062
382.20	0.062
382.40	0.062
382.61	0.062
382.82	0.062
383.02	0.062
383.23	0.062
383.44	0.062
383.64	0.062
383.85	0.062
384.06	0.062
384.27	0.062
384.47	0.062
384.68	0.062
384.89	0.062
385.09	0.061
385.30	0.061
385.51	0.061
385.71	0.061
385.92	0.061
386.13	0.061
386.33	0.061
386.54	0.061
386.75	0.061
386.95	0.061
387.16	0.061
387.37	0.061
387.58	0.061
387.78	0.061
387.99	0.061
388.20	0.061
388.40	0.061
388.61	0.061
388.82	0.061
389.02	0.061
389.23	0.061
389.44	0.061
389.64	0.061
389.85	0.061
390.06	0.061
390.26	0.061
390.47	0.061
390.68	0.060
390.88	0.060
391.09	0.061
391.30	0.061
391.50	0.061
391.71	0.060
391.92	0.060
392.12	0.060
392.33	0.060
392.53	0.060
392.74	0.061
392.95	0.061
393.15	0.061
393.36	0.061
393.57	0.061
393.77	0.060
393.98	0.061
394.19	0.061
394.39	0.061
394.60	0.061
394.81	0.061
395.01	0.061
395.22	0.061
395.43	0.060
395.63	0.060
395.84	0.060
396.04	0.060
396.25	0.060
396.46	0.060
396.66	0.060
396.87	0.060
397.08	0.060
397.28	0.060
397.49	0.060
397.69	0.060
397.90	0.060
398.11	0.060
398.31	0.060
398.52	0.060
398.73	0.060
398.93	0.060
399.14	0.060
399.34	0.060
399.55	0.060
399.76	0.060
399.96	0.060
400.17	0.060
400.37	0.060
400.58	0.060
400.79	0.060
400.99	0.060
401.20	0.060
401.41	0.060
401.61	0.060
401.82	0.060
402.02	0.060
402.23	0.060
402.44	0.060
402.64	0.060
402.85	0.060
403.05	0.059
403.26	0.059
403.47	0.059
403.67	0.059
403.88	0.059
404.08	0.059
404.29	0.059
404.50	0.059
404.70	0.059
404.91	0.059
405.11	0.059
405.32	0.059
405.52	0.059
405.73	0.059
405.94	0.059
406.14	0.059
406.35	0.059
406.55	0.059
406.76	0.058
406.97	0.058
407.17	0.058
407.38	0.059
407.58	0.059
407.79	0.058
407.99	0.059
408.20	0.059
408.41	0.059
408.61	0.059
408.82	0.059
409.02	0.059
409.23	0.059
409.43	0.059
409.64	0.058
409.84	0.059
410.05	0.059
410.26	0.058
410.46	0.058
410.67	0.058
410.87	0.058
411.08	0.058
411.28	0.058
411.49	0.058
411.69	0.058
411.90	0.058
412.11	0.058
412.31	0.058
412.52	0.058
412.72	0.058
412.93	0.058
413.13	0.058
413.34	0.058
413.54	0.058
413.75	0.058
413.95	0.058
414.16	0.058
414.37	0.058
414.57	0.058
414.78	0.058
414.98	0.058
415.19	0.058
415.39	0.058
415.60	0.058
415.80	0.058
416.01	0.058
416.21	0.058
416.42	0.058
416.62	0.058
416.83	0.058
417.03	0.057
417.24	0.057
417.44	0.057
417.65	0.057
417.86	0.057
418.06	0.057
418.27	0.057
418.47	0.057
418.68	0.057
418.88	0.057
419.09	0.057
419.29	0.057
419.50	0.057
419.70	0.057
419.91	0.057
420.11	0.057
420.32	0.057
420.52	0.057
420.73	0.057
420.93	0.057
421.14	0.057
421.34	0.057
421.55	0.057
421.75	0.057
421.96	0.057
422.16	0.057
422.37	0.057
422.57	0.057
422.78	0.057
422.98	0.057
423.19	0.057
423.39	0.057
423.60	0.057
423.80	0.057
424.01	0.057
424.21	0.057
424.42	0.057
424.62	0.057
424.83	0.057
425.03	0.057
425.23	0.057
425.44	0.057
425.64	0.057
425.85	0.057
426.05	0.057
426.26	0.056
426.46	0.056
426.67	0.056
426.87	0.056
427.08	0.056
427.28	0.056
427.49	0.056
427.69	0.056
427.90	0.056
428.10	0.056
428.31	0.055
428.51	0.055
428.71	0.055
428.92	0.055
429.12	0.055
429.33	0.055
429.53	0.055
429.74	0.056
429.94	0.056
430.15	0.056
430.35	0.056
430.56	0.056
430.76	0.056
430.96	0.056
431.17	0.056
431.37	0.056
431.58	0.056
431.78	0.056
431.99	0.056
432.19	0.057
432.40	0.057
432.60	0.057
432.80	0.057
433.01	0.057
433.21	0.056
433.42	0.056
433.62	0.056
433.83	0.056
434.03	0.056
434.23	0.056
434.44	0.056
434.64	0.056
434.85	0.056
435.05	0.055
435.26	0.055
435.46	0.055
435.66	0.055
435.87	0.055
436.07	0.055
436.28	0.055
436.48	0.055
436.69	0.055
436.89	0.055
437.09	0.055
437.30	0.055
437.50	0.055
437.71	0.055
437.91	0.055
438.11	0.055
438.32	0.055
438.52	0.055
438.73	0.055
438.93	0.055
439.13	0.055
439.34	0.055
439.54	0.055
439.75	0.055
439.95	0.055
440.15	0.055
440.36	0.055
440.56	0.055
440.77	0.055
440.97	0.055
441.17	0.055
441.38	0.055
441.58	0.055
441.79	0.055
441.99	0.055
442.19	0.054
442.40	0.054
442.60	0.054
442.81	0.054
443.01	0.054
443.21	0.054
443.42	0.054
443.62	0.054
443.82	0.054
444.03	0.054
444.23	0.054
444.44	0.055
444.64	0.055
444.84	0.055
445.05	0.055
445.25	0.055
445.45	0.055
445.66	0.055
445.86	0.055
446.06	0.055
446.27	0.055
446.47	0.055
446.68	0.055
446.88	0.054
447.08	0.054
447.29	0.054
447.49	0.054
447.69	0.054
447.90	0.054
448.10	0.054
448.30	0.054
448.51	0.054
448.71	0.054
448.91	0.054
449.12	0.054
449.32	0.054
449.52	0.054
449.73	0.054
449.93	0.054
450.14	0.054
450.34	0.054
450.54	0.054
450.75	0.054
450.95	0.054
451.15	0.054
451.36	0.054
451.56	0.054
451.76	0.054
451.97	0.054
452.17	0.054
452.37	0.053
452.58	0.053
452.78	0.053
452.98	0.053
453.19	0.053
453.39	0.053
453.59	0.053
453.79	0.053
454.00	0.053
454.20	0.053
454.40	0.053
454.61	0.053
454.81	0.053
455.01	0.053
455.22	0.053
455.42	0.053
455.62	0.053
455.83	0.053
456.03	0.053
456.23	0.053
456.44	0.053
456.64	0.053
456.84	0.053
457.04	0.053
457.25	0.053
457.45	0.053
457.65	0.053
457.86	0.053
458.06	0.053
458.26	0.053
458.47	0.053
458.67	0.053
458.87	0.053
459.07	0.053
459.28	0.052
459.48	0.053
459.68	0.053
459.89	0.053
460.09	0.053
460.29	0.053
460.49	0.053
460.70	0.053
460.90	0.053
461.10	0.053
461.31	0.053
461.51	0.053
461.71	0.053
461.91	0.053
462.12	0.053
462.32	0.053
462.52	0.053
462.72	0.053
462.93	0.053
463.13	0.052
463.33	0.052
463.53	0.052
463.74	0.052
463.94	0.052
464.14	0.052
464.35	0.052
464.55	0.052
464.75	0.052
464.95	0.052
465.16	0.052
465.36	0.052
465.56	0.052
465.76	0.052
465.97	0.053
466.17	0.053
466.37	0.053
466.57	0.053
466.78	0.053
466.98	0.053
467.18	0.053
467.38	0.053
467.59	0.053
467.79	0.053
