SpectraSuite Data File
++++++++++++++++++++++++++++++++++++
Date: Mon Jun 15 06:32:27 PDT 2015
User: introlabs
Dark Spectrum Present: Yes
Reference Spectrum Present: Yes
Number of Sampled Component Spectra: 1
Spectrometers: USB4H08886
Integration Time (usec): 44366 (USB4H08886)
Spectra Averaged: 20 (USB4H08886)
Boxcar Smoothing: 5 (USB4H08886)
Correct for Electrical Dark: Yes (USB4H08886)
Strobe/Lamp Enabled: No (USB4H08886)
Correct for Detector Non-linearity: Yes (USB4H08886)
Correct for Stray Light: Yes (USB4H08886)
Number of Pixels in Processed Spectrum: 3648
>>>>>Begin Processed Spectral Data<<<<<
178.14	-0.863
178.36	-0.863
178.57	-0.863
178.79	-2.040
179.01	1.011
179.22	-1.815
179.44	-0.907
179.65	-0.000
179.87	0.406
180.08	0.380
180.30	0.243
180.52	0.370
180.73	0.370
180.95	0.149
181.16	0.106
181.38	0.099
181.59	0.078
181.81	0.057
182.03	0.056
182.24	0.045
182.46	0.028
182.67	0.034
182.89	0.020
183.10	0.018
183.32	0.016
183.54	0.013
183.75	0.002
183.97	0.002
184.18	0.003
184.40	-0.006
184.61	-0.007
184.83	-0.003
185.04	-0.004
185.26	0.006
185.48	-0.001
185.69	0.000
185.91	-0.000
186.12	-0.003
186.34	0.000
186.55	-0.013
186.77	-0.015
186.98	-0.014
187.20	-0.020
187.42	-0.024
187.63	-0.034
187.85	-0.033
188.06	-0.031
188.28	-0.034
188.49	-0.024
188.71	-0.032
188.92	-0.025
189.14	-0.032
189.36	-0.019
189.57	-0.015
189.79	-0.006
190.00	-0.001
190.22	0.001
190.43	0.004
190.65	0.011
190.86	0.010
191.08	0.009
191.29	0.006
191.51	0.015
191.72	0.005
191.94	0.008
192.16	0.002
192.37	-0.001
192.59	-0.011
192.80	-0.012
193.02	-0.016
193.23	-0.016
193.45	-0.012
193.66	-0.007
193.88	-0.011
194.09	-0.008
194.31	-0.010
194.52	-0.003
194.74	0.004
194.95	0.009
195.17	0.009
195.38	0.017
195.60	0.032
195.81	0.029
196.03	0.031
196.25	0.043
196.46	0.029
196.68	0.024
196.89	0.022
197.11	0.024
197.32	0.025
197.54	0.020
197.75	0.011
197.97	-0.004
198.18	-0.005
198.40	-0.007
198.61	-0.012
198.83	-0.011
199.04	-0.009
199.26	-0.011
199.47	-0.017
199.69	-0.019
199.90	-0.017
200.12	-0.014
200.33	-0.020
200.55	-0.012
200.76	-0.019
200.98	-0.031
201.19	-0.018
201.41	-0.015
201.62	-0.013
201.84	-0.013
202.05	-0.012
202.27	-0.017
202.48	-0.016
202.70	-0.010
202.91	-0.018
203.13	-0.005
203.34	0.003
203.56	0.002
203.77	0.002
203.99	-0.001
204.20	0.001
204.42	0.003
204.63	0.008
204.85	-0.001
205.06	-0.008
205.28	0.000
205.49	0.002
205.71	0.010
205.92	-0.001
206.14	-0.003
206.35	-0.000
206.56	-0.008
206.78	0.001
206.99	-0.004
207.21	0.006
207.42	0.009
207.64	0.005
207.85	-0.002
208.07	-0.010
208.28	-0.011
208.50	-0.015
208.71	-0.018
208.93	-0.015
209.14	-0.028
209.36	-0.014
209.57	-0.018
209.79	-0.016
210.00	-0.014
210.22	-0.011
210.43	-0.008
210.64	0.001
210.86	0.002
211.07	0.003
211.29	0.005
211.50	0.004
211.72	-0.007
211.93	-0.012
212.15	-0.006
212.36	-0.001
212.58	-0.002
212.79	-0.003
213.01	-0.008
213.22	-0.003
213.43	-0.003
213.65	0.003
213.86	0.003
214.08	-0.001
214.29	0.004
214.51	-0.003
214.72	-0.005
214.94	-0.002
215.15	-0.005
215.36	-0.001
215.58	-0.005
215.79	-0.003
216.01	-0.015
216.22	-0.012
216.44	-0.008
216.65	-0.006
216.87	0.002
217.08	-0.002
217.29	-0.002
217.51	-0.002
217.72	-0.002
217.94	0.006
218.15	0.003
218.37	0.001
218.58	0.004
218.80	0.004
219.01	0.002
219.22	-0.005
219.44	-0.008
219.65	-0.017
219.87	-0.017
220.08	-0.012
220.30	-0.023
220.51	-0.022
220.72	-0.007
220.94	-0.012
221.15	-0.008
221.37	-0.013
221.58	-0.010
221.79	-0.006
222.01	0.000
222.22	0.001
222.44	-0.010
222.65	0.000
222.87	-0.008
223.08	-0.019
223.29	-0.019
223.51	-0.025
223.72	-0.018
223.94	-0.017
224.15	-0.023
224.36	-0.027
224.58	-0.026
224.79	-0.017
225.01	-0.019
225.22	-0.016
225.44	-0.013
225.65	-0.013
225.86	-0.007
226.08	-0.011
226.29	-0.016
226.51	-0.015
226.72	-0.014
226.93	-0.011
227.15	-0.019
227.36	-0.023
227.58	-0.019
227.79	-0.019
228.00	-0.025
228.22	-0.032
228.43	-0.035
228.65	-0.034
228.86	-0.033
229.07	-0.034
229.29	-0.042
229.50	-0.042
229.72	-0.046
229.93	-0.046
230.14	-0.046
230.36	-0.042
230.57	-0.041
230.78	-0.040
231.00	-0.041
231.21	-0.045
231.43	-0.044
231.64	-0.042
231.85	-0.042
232.07	-0.043
232.28	-0.042
232.50	-0.043
232.71	-0.044
232.92	-0.044
233.14	-0.046
233.35	-0.049
233.56	-0.047
233.78	-0.047
233.99	-0.048
234.21	-0.046
234.42	-0.042
234.63	-0.044
234.85	-0.045
235.06	-0.045
235.27	-0.046
235.49	-0.046
235.70	-0.046
235.91	-0.048
236.13	-0.050
236.34	-0.050
236.56	-0.050
236.77	-0.053
236.98	-0.054
237.20	-0.055
237.41	-0.055
237.62	-0.055
237.84	-0.053
238.05	-0.052
238.26	-0.052
238.48	-0.052
238.69	-0.052
238.91	-0.052
239.12	-0.051
239.33	-0.050
239.55	-0.048
239.76	-0.048
239.97	-0.048
240.19	-0.048
240.40	-0.048
240.61	-0.047
240.83	-0.045
241.04	-0.044
241.25	-0.043
241.47	-0.043
241.68	-0.042
241.89	-0.043
242.11	-0.042
242.32	-0.041
242.53	-0.040
242.75	-0.039
242.96	-0.039
243.17	-0.039
243.39	-0.038
243.60	-0.038
243.81	-0.037
244.03	-0.037
244.24	-0.037
244.45	-0.037
244.67	-0.036
244.88	-0.036
245.09	-0.036
245.31	-0.036
245.52	-0.036
245.73	-0.035
245.95	-0.036
246.16	-0.035
246.37	-0.034
246.59	-0.034
246.80	-0.034
247.01	-0.033
247.23	-0.033
247.44	-0.032
247.65	-0.032
247.87	-0.032
248.08	-0.032
248.29	-0.031
248.51	-0.032
248.72	-0.032
248.93	-0.031
249.15	-0.031
249.36	-0.031
249.57	-0.031
249.78	-0.030
250.00	-0.030
250.21	-0.029
250.42	-0.029
250.64	-0.029
250.85	-0.028
251.06	-0.028
251.28	-0.028
251.49	-0.027
251.70	-0.027
251.92	-0.027
252.13	-0.027
252.34	-0.027
252.55	-0.026
252.77	-0.026
252.98	-0.026
253.19	-0.026
253.41	-0.026
253.62	-0.026
253.83	-0.026
254.05	-0.026
254.26	-0.025
254.47	-0.026
254.68	-0.025
254.90	-0.025
255.11	-0.025
255.32	-0.024
255.54	-0.024
255.75	-0.024
255.96	-0.024
256.17	-0.024
256.39	-0.024
256.60	-0.024
256.81	-0.024
257.03	-0.024
257.24	-0.024
257.45	-0.024
257.66	-0.024
257.88	-0.023
258.09	-0.023
258.30	-0.023
258.51	-0.023
258.73	-0.023
258.94	-0.022
259.15	-0.022
259.37	-0.022
259.58	-0.022
259.79	-0.021
260.00	-0.022
260.22	-0.022
260.43	-0.022
260.64	-0.023
260.85	-0.023
261.07	-0.023
261.28	-0.023
261.49	-0.023
261.71	-0.023
261.92	-0.023
262.13	-0.023
262.34	-0.024
262.56	-0.023
262.77	-0.023
262.98	-0.023
263.19	-0.023
263.41	-0.024
263.62	-0.024
263.83	-0.024
264.04	-0.024
264.26	-0.025
264.47	-0.025
264.68	-0.025
264.89	-0.025
265.11	-0.025
265.32	-0.025
265.53	-0.025
265.74	-0.025
265.96	-0.026
266.17	-0.026
266.38	-0.026
266.59	-0.026
266.81	-0.027
267.02	-0.027
267.23	-0.027
267.44	-0.026
267.65	-0.027
267.87	-0.027
268.08	-0.027
268.29	-0.027
268.50	-0.027
268.72	-0.028
268.93	-0.028
269.14	-0.027
269.35	-0.028
269.57	-0.028
269.78	-0.028
269.99	-0.029
270.20	-0.029
270.41	-0.029
270.63	-0.029
270.84	-0.029
271.05	-0.029
271.26	-0.029
271.48	-0.029
271.69	-0.029
271.90	-0.029
272.11	-0.029
272.32	-0.029
272.54	-0.029
272.75	-0.029
272.96	-0.029
273.17	-0.029
273.39	-0.030
273.60	-0.030
273.81	-0.030
274.02	-0.031
274.23	-0.031
274.45	-0.031
274.66	-0.031
274.87	-0.031
275.08	-0.032
275.29	-0.032
275.51	-0.032
275.72	-0.032
275.93	-0.032
276.14	-0.032
276.35	-0.032
276.57	-0.032
276.78	-0.032
276.99	-0.032
277.20	-0.032
277.41	-0.032
277.63	-0.032
277.84	-0.032
278.05	-0.032
278.26	-0.032
278.47	-0.032
278.69	-0.032
278.90	-0.032
279.11	-0.032
279.32	-0.032
279.53	-0.031
279.74	-0.031
279.96	-0.031
280.17	-0.031
280.38	-0.030
280.59	-0.031
280.80	-0.031
281.02	-0.031
281.23	-0.031
281.44	-0.031
281.65	-0.031
281.86	-0.030
282.07	-0.030
282.29	-0.030
282.50	-0.030
282.71	-0.030
282.92	-0.030
283.13	-0.030
283.35	-0.030
283.56	-0.030
283.77	-0.029
283.98	-0.029
284.19	-0.029
284.40	-0.029
284.62	-0.029
284.83	-0.029
285.04	-0.028
285.25	-0.027
285.46	-0.027
285.67	-0.026
285.88	-0.026
286.10	-0.026
286.31	-0.025
286.52	-0.025
286.73	-0.025
286.94	-0.024
287.15	-0.024
287.37	-0.024
287.58	-0.024
287.79	-0.023
288.00	-0.023
288.21	-0.022
288.42	-0.022
288.63	-0.021
288.85	-0.021
289.06	-0.021
289.27	-0.020
289.48	-0.020
289.69	-0.019
289.90	-0.019
290.11	-0.018
290.33	-0.018
290.54	-0.018
290.75	-0.017
290.96	-0.017
291.17	-0.017
291.38	-0.017
291.59	-0.017
291.81	-0.016
292.02	-0.016
292.23	-0.016
292.44	-0.016
292.65	-0.016
292.86	-0.016
293.07	-0.015
293.28	-0.015
293.50	-0.015
293.71	-0.015
293.92	-0.014
294.13	-0.014
294.34	-0.014
294.55	-0.014
294.76	-0.014
294.97	-0.014
295.19	-0.014
295.40	-0.014
295.61	-0.014
295.82	-0.014
296.03	-0.013
296.24	-0.013
296.45	-0.013
296.66	-0.013
296.87	-0.013
297.09	-0.013
297.30	-0.013
297.51	-0.013
297.72	-0.013
297.93	-0.013
298.14	-0.013
298.35	-0.013
298.56	-0.013
298.77	-0.013
298.99	-0.013
299.20	-0.013
299.41	-0.013
299.62	-0.013
299.83	-0.013
300.04	-0.013
300.25	-0.013
300.46	-0.012
300.67	-0.013
300.88	-0.012
301.10	-0.012
301.31	-0.013
301.52	-0.013
301.73	-0.012
301.94	-0.012
302.15	-0.013
302.36	-0.013
302.57	-0.013
302.78	-0.013
302.99	-0.013
303.20	-0.013
303.41	-0.013
303.63	-0.013
303.84	-0.013
304.05	-0.013
304.26	-0.013
304.47	-0.013
304.68	-0.013
304.89	-0.013
305.10	-0.013
305.31	-0.013
305.52	-0.013
305.73	-0.013
305.94	-0.013
306.15	-0.013
306.37	-0.013
306.58	-0.013
306.79	-0.012
307.00	-0.012
307.21	-0.012
307.42	-0.012
307.63	-0.012
307.84	-0.012
308.05	-0.012
308.26	-0.012
308.47	-0.012
308.68	-0.012
308.89	-0.012
309.10	-0.012
309.31	-0.012
309.52	-0.012
309.73	-0.012
309.95	-0.012
310.16	-0.012
310.37	-0.012
310.58	-0.012
310.79	-0.012
311.00	-0.012
311.21	-0.012
311.42	-0.012
311.63	-0.012
311.84	-0.012
312.05	-0.012
312.26	-0.012
312.47	-0.013
312.68	-0.013
312.89	-0.013
313.10	-0.012
313.31	-0.012
313.52	-0.012
313.73	-0.012
313.94	-0.012
314.15	-0.012
314.36	-0.012
314.57	-0.012
314.78	-0.012
314.99	-0.012
315.21	-0.012
315.42	-0.012
315.63	-0.012
315.84	-0.012
316.05	-0.012
316.26	-0.012
316.47	-0.012
316.68	-0.012
316.89	-0.012
317.10	-0.012
317.31	-0.012
317.52	-0.012
317.73	-0.012
317.94	-0.012
318.15	-0.012
318.36	-0.012
318.57	-0.012
318.78	-0.012
318.99	-0.011
319.20	-0.011
319.41	-0.011
319.62	-0.011
319.83	-0.011
320.04	-0.011
320.25	-0.011
320.46	-0.011
320.67	-0.011
320.88	-0.011
321.09	-0.012
321.30	-0.012
321.51	-0.012
321.72	-0.012
321.93	-0.012
322.14	-0.012
322.35	-0.012
322.56	-0.011
322.77	-0.012
322.98	-0.011
323.19	-0.011
323.40	-0.011
323.61	-0.011
323.82	-0.011
324.03	-0.011
324.24	-0.011
324.45	-0.011
324.66	-0.011
324.87	-0.011
325.08	-0.011
325.29	-0.011
325.50	-0.011
325.71	-0.011
325.92	-0.011
326.13	-0.011
326.34	-0.011
326.55	-0.011
326.76	-0.011
326.97	-0.011
327.18	-0.011
327.39	-0.011
327.60	-0.011
327.80	-0.011
328.01	-0.011
328.22	-0.011
328.43	-0.010
328.64	-0.010
328.85	-0.010
329.06	-0.010
329.27	-0.010
329.48	-0.010
329.69	-0.010
329.90	-0.010
330.11	-0.010
330.32	-0.010
330.53	-0.010
330.74	-0.010
330.95	-0.010
331.16	-0.010
331.37	-0.011
331.58	-0.010
331.79	-0.010
332.00	-0.010
332.21	-0.010
332.42	-0.010
332.63	-0.010
332.83	-0.010
333.04	-0.010
333.25	-0.010
333.46	-0.010
333.67	-0.010
333.88	-0.010
334.09	-0.010
334.30	-0.010
334.51	-0.010
334.72	-0.010
334.93	-0.010
335.14	-0.010
335.35	-0.010
335.56	-0.010
335.77	-0.010
335.98	-0.010
336.18	-0.010
336.39	-0.010
336.60	-0.010
336.81	-0.010
337.02	-0.010
337.23	-0.010
337.44	-0.010
337.65	-0.010
337.86	-0.010
338.07	-0.010
338.28	-0.010
338.49	-0.010
338.70	-0.010
338.91	-0.010
339.11	-0.010
339.32	-0.010
339.53	-0.010
339.74	-0.010
339.95	-0.010
340.16	-0.010
340.37	-0.010
340.58	-0.009
340.79	-0.009
341.00	-0.009
341.21	-0.009
341.41	-0.009
341.62	-0.009
341.83	-0.009
342.04	-0.009
342.25	-0.009
342.46	-0.009
342.67	-0.009
342.88	-0.009
343.09	-0.009
343.30	-0.009
343.50	-0.009
343.71	-0.009
343.92	-0.009
344.13	-0.009
344.34	-0.009
344.55	-0.009
344.76	-0.009
344.97	-0.009
345.18	-0.009
345.38	-0.009
345.59	-0.009
345.80	-0.009
346.01	-0.009
346.22	-0.009
346.43	-0.009
346.64	-0.009
346.85	-0.009
347.06	-0.009
347.26	-0.009
347.47	-0.009
347.68	-0.009
347.89	-0.009
348.10	-0.009
348.31	-0.009
348.52	-0.009
348.73	-0.009
348.93	-0.009
349.14	-0.009
349.35	-0.009
349.56	-0.009
349.77	-0.009
349.98	-0.009
350.19	-0.009
350.39	-0.009
350.60	-0.008
350.81	-0.009
351.02	-0.008
351.23	-0.009
351.44	-0.008
351.65	-0.008
351.86	-0.008
352.06	-0.008
352.27	-0.008
352.48	-0.008
352.69	-0.008
352.90	-0.008
353.11	-0.008
353.31	-0.008
353.52	-0.008
353.73	-0.008
353.94	-0.008
354.15	-0.008
354.36	-0.008
354.57	-0.008
354.77	-0.008
354.98	-0.008
355.19	-0.008
355.40	-0.008
355.61	-0.008
355.82	-0.008
356.02	-0.008
356.23	-0.008
356.44	-0.008
356.65	-0.008
356.86	-0.008
357.07	-0.008
357.27	-0.008
357.48	-0.008
357.69	-0.007
357.90	-0.007
358.11	-0.007
358.32	-0.007
358.52	-0.007
358.73	-0.007
358.94	-0.007
359.15	-0.007
359.36	-0.007
359.56	-0.007
359.77	-0.007
359.98	-0.007
360.19	-0.007
360.40	-0.007
360.61	-0.007
360.81	-0.007
361.02	-0.007
361.23	-0.007
361.44	-0.007
361.65	-0.007
361.85	-0.007
362.06	-0.007
362.27	-0.007
362.48	-0.007
362.69	-0.007
362.89	-0.007
363.10	-0.007
363.31	-0.007
363.52	-0.007
363.73	-0.007
363.93	-0.007
364.14	-0.007
364.35	-0.007
364.56	-0.007
364.77	-0.007
364.97	-0.007
365.18	-0.007
365.39	-0.007
365.60	-0.007
365.81	-0.007
366.01	-0.007
366.22	-0.007
366.43	-0.007
366.64	-0.007
366.84	-0.007
367.05	-0.007
367.26	-0.007
367.47	-0.007
367.68	-0.007
367.88	-0.007
368.09	-0.007
368.30	-0.007
368.51	-0.007
368.71	-0.007
368.92	-0.007
369.13	-0.007
369.34	-0.007
369.55	-0.007
369.75	-0.007
369.96	-0.007
370.17	-0.007
370.38	-0.007
370.58	-0.007
370.79	-0.007
371.00	-0.007
371.21	-0.007
371.41	-0.007
371.62	-0.007
371.83	-0.006
372.04	-0.006
372.24	-0.006
372.45	-0.006
372.66	-0.006
372.87	-0.006
373.07	-0.006
373.28	-0.007
373.49	-0.007
373.70	-0.007
373.90	-0.007
374.11	-0.007
374.32	-0.007
374.53	-0.007
374.73	-0.007
374.94	-0.007
375.15	-0.007
375.36	-0.007
375.56	-0.007
375.77	-0.007
375.98	-0.007
376.19	-0.007
376.39	-0.007
376.60	-0.007
376.81	-0.007
377.02	-0.007
377.22	-0.007
377.43	-0.007
377.64	-0.007
377.84	-0.007
378.05	-0.006
378.26	-0.006
378.47	-0.006
378.67	-0.006
378.88	-0.006
379.09	-0.006
379.30	-0.006
379.50	-0.006
379.71	-0.006
379.92	-0.006
380.12	-0.006
380.33	-0.006
380.54	-0.006
380.75	-0.006
380.95	-0.006
381.16	-0.006
381.37	-0.006
381.57	-0.006
381.78	-0.006
381.99	-0.006
382.20	-0.006
382.40	-0.006
382.61	-0.006
382.82	-0.006
383.02	-0.006
383.23	-0.006
383.44	-0.006
383.64	-0.006
383.85	-0.006
384.06	-0.006
384.27	-0.006
384.47	-0.006
384.68	-0.006
384.89	-0.006
385.09	-0.006
385.30	-0.006
385.51	-0.006
385.71	-0.006
385.92	-0.006
386.13	-0.006
386.33	-0.006
386.54	-0.006
386.75	-0.006
386.95	-0.006
387.16	-0.006
387.37	-0.006
387.58	-0.006
387.78	-0.006
387.99	-0.006
388.20	-0.006
388.40	-0.006
388.61	-0.006
388.82	-0.006
389.02	-0.006
389.23	-0.006
389.44	-0.006
389.64	-0.006
389.85	-0.006
390.06	-0.006
390.26	-0.006
390.47	-0.006
390.68	-0.006
390.88	-0.006
391.09	-0.006
391.30	-0.006
391.50	-0.006
391.71	-0.006
391.92	-0.006
392.12	-0.006
392.33	-0.006
392.53	-0.006
392.74	-0.006
392.95	-0.006
393.15	-0.006
393.36	-0.006
393.57	-0.006
393.77	-0.006
393.98	-0.006
394.19	-0.006
394.39	-0.006
394.60	-0.006
394.81	-0.006
395.01	-0.006
395.22	-0.005
395.43	-0.005
395.63	-0.005
395.84	-0.005
396.04	-0.005
396.25	-0.006
396.46	-0.006
396.66	-0.006
396.87	-0.006
397.08	-0.006
397.28	-0.006
397.49	-0.006
397.69	-0.006
397.90	-0.006
398.11	-0.006
398.31	-0.006
398.52	-0.006
398.73	-0.006
398.93	-0.006
399.14	-0.006
399.34	-0.005
399.55	-0.005
399.76	-0.005
399.96	-0.006
400.17	-0.006
400.37	-0.006
400.58	-0.006
400.79	-0.006
400.99	-0.006
401.20	-0.005
401.41	-0.005
401.61	-0.005
401.82	-0.005
402.02	-0.005
402.23	-0.005
402.44	-0.005
402.64	-0.005
402.85	-0.005
403.05	-0.005
403.26	-0.005
403.47	-0.005
403.67	-0.005
403.88	-0.005
404.08	-0.005
404.29	-0.005
404.50	-0.005
404.70	-0.005
404.91	-0.005
405.11	-0.005
405.32	-0.005
405.52	-0.006
405.73	-0.006
405.94	-0.005
406.14	-0.006
406.35	-0.005
406.55	-0.006
406.76	-0.006
406.97	-0.006
407.17	-0.006
407.38	-0.006
407.58	-0.006
407.79	-0.006
407.99	-0.006
408.20	-0.006
408.41	-0.006
408.61	-0.006
408.82	-0.006
409.02	-0.006
409.23	-0.006
409.43	-0.005
409.64	-0.005
409.84	-0.005
410.05	-0.005
410.26	-0.005
410.46	-0.005
410.67	-0.005
410.87	-0.005
411.08	-0.005
411.28	-0.005
411.49	-0.005
411.69	-0.005
411.90	-0.005
412.11	-0.005
412.31	-0.005
412.52	-0.005
412.72	-0.005
412.93	-0.005
413.13	-0.005
413.34	-0.005
413.54	-0.005
413.75	-0.005
413.95	-0.005
414.16	-0.005
414.37	-0.005
414.57	-0.005
414.78	-0.005
414.98	-0.005
415.19	-0.005
415.39	-0.005
415.60	-0.005
415.80	-0.005
416.01	-0.005
416.21	-0.005
416.42	-0.005
416.62	-0.005
416.83	-0.005
417.03	-0.005
417.24	-0.005
417.44	-0.005
417.65	-0.005
417.86	-0.005
418.06	-0.005
418.27	-0.005
418.47	-0.005
418.68	-0.005
418.88	-0.005
419.09	-0.005
419.29	-0.005
419.50	-0.005
419.70	-0.005
419.91	-0.005
420.11	-0.005
420.32	-0.005
420.52	-0.005
420.73	-0.005
420.93	-0.005
421.14	-0.005
421.34	-0.005
421.55	-0.005
421.75	-0.005
421.96	-0.005
422.16	-0.005
422.37	-0.005
422.57	-0.005
422.78	-0.005
422.98	-0.005
423.19	-0.005
423.39	-0.005
423.60	-0.005
423.80	-0.005
424.01	-0.005
424.21	-0.005
424.42	-0.005
424.62	-0.005
424.83	-0.005
425.03	-0.005
425.23	-0.005
425.44	-0.005
425.64	-0.005
425.85	-0.005
426.05	-0.005
426.26	-0.005
426.46	-0.005
426.67	-0.005
426.87	-0.005
427.08	-0.005
427.28	-0.005
427.49	-0.005
427.69	-0.005
427.90	-0.005
428.10	-0.005
428.31	-0.005
428.51	-0.005
428.71	-0.005
428.92	-0.005
429.12	-0.005
429.33	-0.005
429.53	-0.005
429.74	-0.005
429.94	-0.005
430.15	-0.005
430.35	-0.005
430.56	-0.005
430.76	-0.005
430.96	-0.005
431.17	-0.005
431.37	-0.005
431.58	-0.005
431.78	-0.005
431.99	-0.005
432.19	-0.005
432.40	-0.005
432.60	-0.005
432.80	-0.005
433.01	-0.005
433.21	-0.005
433.42	-0.005
433.62	-0.005
433.83	-0.005
434.03	-0.005
434.23	-0.005
434.44	-0.005
434.64	-0.005
434.85	-0.005
435.05	-0.005
435.26	-0.005
435.46	-0.005
435.66	-0.005
435.87	-0.005
436.07	-0.005
436.28	-0.005
436.48	-0.005
436.69	-0.005
436.89	-0.005
437.09	-0.005
437.30	-0.005
437.50	-0.005
437.71	-0.005
437.91	-0.005
438.11	-0.005
438.32	-0.004
438.52	-0.004
438.73	-0.004
438.93	-0.004
439.13	-0.004
439.34	-0.004
439.54	-0.004
439.75	-0.004
439.95	-0.004
440.15	-0.004
440.36	-0.004
440.56	-0.005
440.77	-0.005
440.97	-0.004
441.17	-0.005
441.38	-0.004
441.58	-0.005
441.79	-0.004
441.99	-0.004
442.19	-0.004
442.40	-0.004
442.60	-0.005
442.81	-0.004
443.01	-0.004
443.21	-0.005
443.42	-0.005
443.62	-0.005
443.82	-0.005
444.03	-0.005
444.23	-0.005
444.44	-0.005
444.64	-0.005
444.84	-0.005
445.05	-0.005
445.25	-0.005
445.45	-0.005
445.66	-0.005
445.86	-0.005
446.06	-0.005
446.27	-0.005
446.47	-0.005
446.68	-0.005
446.88	-0.005
447.08	-0.005
447.29	-0.005
447.49	-0.005
447.69	-0.005
447.90	-0.005
448.10	-0.004
448.30	-0.004
448.51	-0.004
448.71	-0.004
448.91	-0.004
449.12	-0.004
449.32	-0.004
449.52	-0.004
449.73	-0.004
449.93	-0.005
450.14	-0.005
450.34	-0.004
