SpectraSuite Data File
++++++++++++++++++++++++++++++++++++
Date: Mon Jun 15 05:29:10 PDT 2015
User: introlabs
Dark Spectrum Present: Yes
Reference Spectrum Present: Yes
Number of Sampled Component Spectra: 1
Spectrometers: USB4H08886
Integration Time (usec): 99009 (USB4H08886)
Spectra Averaged: 20 (USB4H08886)
Boxcar Smoothing: 5 (USB4H08886)
Correct for Electrical Dark: Yes (USB4H08886)
Strobe/Lamp Enabled: No (USB4H08886)
Correct for Detector Non-linearity: Yes (USB4H08886)
Correct for Stray Light: Yes (USB4H08886)
Number of Pixels in Processed Spectrum: 3648
>>>>>Begin Processed Spectral Data<<<<<
178.14	-0.000
178.36	-0.000
178.57	-0.000
178.79	-0.000
179.01	0.568
179.22	0.030
179.44	0.046
179.65	0.065
179.87	0.222
180.08	0.401
180.30	0.307
180.52	0.718
180.73	0.579
180.95	-0.000
181.16	-0.156
181.38	-0.094
181.59	-0.088
181.81	-0.076
182.03	-0.057
182.24	-0.038
182.46	-0.028
182.67	-0.018
182.89	-0.013
183.10	-0.016
183.32	-0.017
183.54	-0.016
183.75	-0.006
183.97	-0.004
184.18	-0.002
184.40	-0.005
184.61	-0.007
184.83	-0.003
185.04	-0.007
185.26	-0.005
185.48	-0.001
185.69	0.001
185.91	-0.001
186.12	-0.013
186.34	-0.016
186.55	-0.018
186.77	-0.017
186.98	-0.014
187.20	-0.017
187.42	-0.023
187.63	-0.025
187.85	-0.029
188.06	-0.032
188.28	-0.034
188.49	-0.022
188.71	-0.020
188.92	-0.016
189.14	-0.012
189.36	-0.009
189.57	-0.012
189.79	-0.010
190.00	-0.004
190.22	-0.001
190.43	-0.002
190.65	0.002
190.86	-0.007
191.08	-0.004
191.29	-0.007
191.51	-0.004
191.72	-0.010
191.94	-0.000
192.16	0.005
192.37	0.002
192.59	-0.003
192.80	0.004
193.02	0.002
193.23	0.002
193.45	0.007
193.66	0.008
193.88	-0.002
194.09	-0.003
194.31	-0.012
194.52	-0.014
194.74	-0.016
194.95	-0.009
195.17	-0.013
195.38	-0.008
195.60	-0.006
195.81	-0.016
196.03	-0.015
196.25	-0.010
196.46	-0.002
196.68	-0.002
196.89	-0.002
197.11	-0.001
197.32	-0.009
197.54	-0.010
197.75	-0.014
197.97	-0.017
198.18	-0.015
198.40	-0.010
198.61	-0.014
198.83	-0.015
199.04	-0.016
199.26	-0.020
199.47	-0.023
199.69	-0.024
199.90	-0.023
200.12	-0.018
200.33	-0.015
200.55	-0.019
200.76	-0.028
200.98	-0.022
201.19	-0.022
201.41	-0.021
201.62	-0.018
201.84	-0.011
202.05	-0.002
202.27	-0.002
202.48	-0.010
202.70	0.001
202.91	0.002
203.13	0.005
203.34	0.007
203.56	0.001
203.77	-0.001
203.99	0.001
204.20	-0.004
204.42	-0.006
204.63	-0.003
204.85	0.001
205.06	-0.011
205.28	-0.002
205.49	-0.005
205.71	-0.006
205.92	-0.005
206.14	-0.003
206.35	-0.004
206.56	-0.004
206.78	-0.008
206.99	-0.010
207.21	-0.011
207.42	-0.007
207.64	-0.008
207.85	-0.005
208.07	-0.007
208.28	-0.005
208.50	-0.004
208.71	-0.007
208.93	-0.002
209.14	-0.003
209.36	-0.005
209.57	-0.002
209.79	-0.005
210.00	-0.010
210.22	-0.012
210.43	-0.013
210.64	-0.015
210.86	-0.012
211.07	-0.012
211.29	-0.013
211.50	-0.008
211.72	-0.007
211.93	-0.010
212.15	-0.010
212.36	-0.007
212.58	-0.001
212.79	0.004
213.01	0.003
213.22	0.005
213.43	0.002
213.65	-0.000
213.86	-0.000
214.08	0.001
214.29	0.006
214.51	0.006
214.72	0.006
214.94	0.009
215.15	0.006
215.36	0.008
215.58	0.007
215.79	0.016
216.01	0.017
216.22	0.018
216.44	0.014
216.65	0.011
216.87	0.013
217.08	0.012
217.29	0.010
217.51	0.010
217.72	0.010
217.94	0.003
218.15	0.001
218.37	-0.001
218.58	-0.001
218.80	0.005
219.01	0.000
219.22	0.003
219.44	0.003
219.65	0.001
219.87	-0.003
220.08	-0.001
220.30	0.009
220.51	0.008
220.72	0.006
220.94	0.008
221.15	0.003
221.37	0.009
221.58	0.006
221.79	0.006
222.01	0.007
222.22	0.014
222.44	0.010
222.65	0.007
222.87	0.002
223.08	0.005
223.29	0.001
223.51	-0.002
223.72	-0.005
223.94	-0.006
224.15	-0.008
224.36	-0.012
224.58	-0.013
224.79	-0.010
225.01	-0.018
225.22	-0.013
225.44	-0.016
225.65	-0.020
225.86	-0.016
226.08	-0.015
226.29	-0.016
226.51	-0.016
226.72	-0.014
226.93	-0.013
227.15	-0.015
227.36	-0.011
227.58	-0.013
227.79	-0.013
228.00	-0.009
228.22	-0.006
228.43	-0.006
228.65	-0.004
228.86	-0.005
229.07	-0.008
229.29	-0.009
229.50	-0.004
229.72	-0.003
229.93	-0.005
230.14	-0.005
230.36	-0.004
230.57	-0.005
230.78	-0.001
231.00	-0.001
231.21	0.001
231.43	-0.002
231.64	-0.003
231.85	-0.003
232.07	-0.003
232.28	-0.001
232.50	0.000
232.71	-0.001
232.92	-0.001
233.14	-0.002
233.35	-0.003
233.56	-0.004
233.78	-0.002
233.99	-0.003
234.21	-0.004
234.42	-0.006
234.63	-0.006
234.85	-0.007
235.06	-0.006
235.27	-0.009
235.49	-0.012
235.70	-0.013
235.91	-0.012
236.13	-0.011
236.34	-0.010
236.56	-0.010
236.77	-0.009
236.98	-0.010
237.20	-0.011
237.41	-0.011
237.62	-0.010
237.84	-0.010
238.05	-0.009
238.26	-0.010
238.48	-0.010
238.69	-0.010
238.91	-0.010
239.12	-0.010
239.33	-0.009
239.55	-0.007
239.76	-0.007
239.97	-0.006
240.19	-0.006
240.40	-0.006
240.61	-0.005
240.83	-0.006
241.04	-0.006
241.25	-0.006
241.47	-0.006
241.68	-0.007
241.89	-0.008
242.11	-0.008
242.32	-0.008
242.53	-0.009
242.75	-0.008
242.96	-0.009
243.17	-0.009
243.39	-0.008
243.60	-0.009
243.81	-0.009
244.03	-0.008
244.24	-0.008
244.45	-0.008
244.67	-0.008
244.88	-0.009
245.09	-0.008
245.31	-0.008
245.52	-0.008
245.73	-0.008
245.95	-0.008
246.16	-0.008
246.37	-0.008
246.59	-0.009
246.80	-0.009
247.01	-0.009
247.23	-0.008
247.44	-0.008
247.65	-0.008
247.87	-0.009
248.08	-0.008
248.29	-0.008
248.51	-0.008
248.72	-0.008
248.93	-0.007
249.15	-0.007
249.36	-0.007
249.57	-0.007
249.78	-0.007
250.00	-0.007
250.21	-0.007
250.42	-0.006
250.64	-0.006
250.85	-0.006
251.06	-0.006
251.28	-0.006
251.49	-0.005
251.70	-0.005
251.92	-0.005
252.13	-0.005
252.34	-0.006
252.55	-0.006
252.77	-0.006
252.98	-0.006
253.19	-0.006
253.41	-0.006
253.62	-0.006
253.83	-0.007
254.05	-0.007
254.26	-0.007
254.47	-0.007
254.68	-0.007
254.90	-0.007
255.11	-0.007
255.32	-0.007
255.54	-0.007
255.75	-0.007
255.96	-0.007
256.17	-0.007
256.39	-0.007
256.60	-0.007
256.81	-0.007
257.03	-0.007
257.24	-0.007
257.45	-0.007
257.66	-0.007
257.88	-0.007
258.09	-0.007
258.30	-0.007
258.51	-0.007
258.73	-0.007
258.94	-0.007
259.15	-0.007
259.37	-0.007
259.58	-0.007
259.79	-0.007
260.00	-0.007
260.22	-0.007
260.43	-0.007
260.64	-0.007
260.85	-0.006
261.07	-0.006
261.28	-0.006
261.49	-0.006
261.71	-0.006
261.92	-0.006
262.13	-0.006
262.34	-0.006
262.56	-0.006
262.77	-0.006
262.98	-0.006
263.19	-0.006
263.41	-0.005
263.62	-0.005
263.83	-0.005
264.04	-0.005
264.26	-0.005
264.47	-0.005
264.68	-0.005
264.89	-0.005
265.11	-0.005
265.32	-0.005
265.53	-0.005
265.74	-0.005
265.96	-0.005
266.17	-0.006
266.38	-0.005
266.59	-0.005
266.81	-0.005
267.02	-0.005
267.23	-0.005
267.44	-0.006
267.65	-0.006
267.87	-0.005
268.08	-0.005
268.29	-0.005
268.50	-0.005
268.72	-0.006
268.93	-0.006
269.14	-0.006
269.35	-0.006
269.57	-0.006
269.78	-0.006
269.99	-0.006
270.20	-0.006
270.41	-0.006
270.63	-0.006
270.84	-0.006
271.05	-0.005
271.26	-0.005
271.48	-0.005
271.69	-0.005
271.90	-0.005
272.11	-0.005
272.32	-0.005
272.54	-0.005
272.75	-0.005
272.96	-0.005
273.17	-0.005
273.39	-0.005
273.60	-0.005
273.81	-0.006
274.02	-0.006
274.23	-0.006
274.45	-0.006
274.66	-0.006
274.87	-0.006
275.08	-0.006
275.29	-0.006
275.51	-0.006
275.72	-0.006
275.93	-0.006
276.14	-0.006
276.35	-0.005
276.57	-0.005
276.78	-0.005
276.99	-0.005
277.20	-0.005
277.41	-0.005
277.63	-0.005
277.84	-0.005
278.05	-0.005
278.26	-0.005
278.47	-0.005
278.69	-0.005
278.90	-0.005
279.11	-0.005
279.32	-0.005
279.53	-0.005
279.74	-0.005
279.96	-0.005
280.17	-0.005
280.38	-0.005
280.59	-0.005
280.80	-0.005
281.02	-0.005
281.23	-0.005
281.44	-0.005
281.65	-0.005
281.86	-0.005
282.07	-0.005
282.29	-0.005
282.50	-0.005
282.71	-0.005
282.92	-0.005
283.13	-0.005
283.35	-0.005
283.56	-0.006
283.77	-0.006
283.98	-0.006
284.19	-0.005
284.40	-0.005
284.62	-0.005
284.83	-0.005
285.04	-0.005
285.25	-0.005
285.46	-0.005
285.67	-0.005
285.88	-0.004
286.10	-0.004
286.31	-0.004
286.52	-0.004
286.73	-0.004
286.94	-0.004
287.15	-0.004
287.37	-0.004
287.58	-0.004
287.79	-0.004
288.00	-0.004
288.21	-0.004
288.42	-0.004
288.63	-0.004
288.85	-0.004
289.06	-0.004
289.27	-0.004
289.48	-0.004
289.69	-0.004
289.90	-0.004
290.11	-0.004
290.33	-0.004
290.54	-0.005
290.75	-0.004
290.96	-0.004
291.17	-0.004
291.38	-0.004
291.59	-0.005
291.81	-0.005
292.02	-0.005
292.23	-0.004
292.44	-0.004
292.65	-0.004
292.86	-0.004
293.07	-0.004
293.28	-0.004
293.50	-0.004
293.71	-0.004
293.92	-0.004
294.13	-0.004
294.34	-0.004
294.55	-0.004
294.76	-0.004
294.97	-0.004
295.19	-0.004
295.40	-0.004
295.61	-0.004
295.82	-0.004
296.03	-0.004
296.24	-0.004
296.45	-0.004
296.66	-0.004
296.87	-0.003
297.09	-0.003
297.30	-0.003
297.51	-0.003
297.72	-0.003
297.93	-0.004
298.14	-0.004
298.35	-0.004
298.56	-0.004
298.77	-0.004
298.99	-0.004
299.20	-0.004
299.41	-0.004
299.62	-0.004
299.83	-0.004
300.04	-0.004
300.25	-0.003
300.46	-0.003
300.67	-0.003
300.88	-0.003
301.10	-0.004
301.31	-0.003
301.52	-0.003
301.73	-0.003
301.94	-0.003
302.15	-0.003
302.36	-0.003
302.57	-0.003
302.78	-0.003
302.99	-0.003
303.20	-0.003
303.41	-0.003
303.63	-0.003
303.84	-0.003
304.05	-0.003
304.26	-0.003
304.47	-0.003
304.68	-0.003
304.89	-0.003
305.10	-0.003
305.31	-0.003
305.52	-0.003
305.73	-0.003
305.94	-0.003
306.15	-0.003
306.37	-0.003
306.58	-0.003
306.79	-0.003
307.00	-0.003
307.21	-0.003
307.42	-0.003
307.63	-0.003
307.84	-0.003
308.05	-0.003
308.26	-0.003
308.47	-0.003
308.68	-0.003
308.89	-0.003
309.10	-0.003
309.31	-0.003
309.52	-0.003
309.73	-0.003
309.95	-0.003
310.16	-0.003
310.37	-0.003
310.58	-0.003
310.79	-0.003
311.00	-0.003
311.21	-0.003
311.42	-0.003
311.63	-0.003
311.84	-0.003
312.05	-0.003
312.26	-0.003
312.47	-0.003
312.68	-0.003
312.89	-0.003
313.10	-0.003
313.31	-0.003
313.52	-0.003
313.73	-0.003
313.94	-0.003
314.15	-0.003
314.36	-0.003
314.57	-0.003
314.78	-0.003
314.99	-0.003
315.21	-0.003
315.42	-0.003
315.63	-0.003
315.84	-0.003
316.05	-0.003
316.26	-0.003
316.47	-0.003
316.68	-0.003
316.89	-0.003
317.10	-0.003
317.31	-0.003
317.52	-0.003
317.73	-0.003
317.94	-0.003
318.15	-0.003
318.36	-0.003
318.57	-0.003
318.78	-0.003
318.99	-0.003
319.20	-0.003
319.41	-0.003
319.62	-0.003
319.83	-0.003
320.04	-0.003
320.25	-0.003
320.46	-0.003
320.67	-0.003
320.88	-0.003
321.09	-0.003
321.30	-0.003
321.51	-0.003
321.72	-0.003
321.93	-0.003
322.14	-0.003
322.35	-0.003
322.56	-0.003
322.77	-0.003
322.98	-0.003
323.19	-0.003
323.40	-0.003
323.61	-0.003
323.82	-0.003
324.03	-0.003
324.24	-0.003
324.45	-0.003
324.66	-0.003
324.87	-0.003
325.08	-0.003
325.29	-0.003
325.50	-0.003
325.71	-0.003
325.92	-0.003
326.13	-0.003
326.34	-0.003
326.55	-0.003
326.76	-0.003
326.97	-0.003
327.18	-0.003
327.39	-0.003
327.60	-0.003
327.80	-0.003
328.01	-0.002
328.22	-0.002
328.43	-0.002
328.64	-0.002
328.85	-0.002
329.06	-0.002
329.27	-0.002
329.48	-0.002
329.69	-0.002
329.90	-0.002
330.11	-0.002
330.32	-0.002
330.53	-0.002
330.74	-0.002
330.95	-0.002
331.16	-0.002
331.37	-0.002
331.58	-0.002
331.79	-0.002
332.00	-0.002
332.21	-0.002
332.42	-0.002
332.63	-0.002
332.83	-0.002
333.04	-0.002
333.25	-0.002
333.46	-0.002
333.67	-0.003
333.88	-0.002
334.09	-0.002
334.30	-0.002
334.51	-0.002
334.72	-0.002
334.93	-0.002
335.14	-0.002
335.35	-0.002
335.56	-0.002
335.77	-0.002
335.98	-0.002
336.18	-0.002
336.39	-0.002
336.60	-0.003
336.81	-0.002
337.02	-0.003
337.23	-0.003
337.44	-0.003
337.65	-0.003
337.86	-0.003
338.07	-0.003
338.28	-0.003
338.49	-0.003
338.70	-0.003
338.91	-0.003
339.11	-0.003
339.32	-0.003
339.53	-0.003
339.74	-0.002
339.95	-0.002
340.16	-0.002
340.37	-0.002
340.58	-0.002
340.79	-0.002
341.00	-0.002
341.21	-0.002
341.41	-0.002
341.62	-0.002
341.83	-0.002
342.04	-0.002
342.25	-0.002
342.46	-0.002
342.67	-0.002
342.88	-0.003
343.09	-0.002
343.30	-0.002
343.50	-0.002
343.71	-0.002
343.92	-0.002
344.13	-0.002
344.34	-0.002
344.55	-0.002
344.76	-0.002
344.97	-0.002
345.18	-0.002
345.38	-0.002
345.59	-0.002
345.80	-0.002
346.01	-0.002
346.22	-0.002
346.43	-0.002
346.64	-0.002
346.85	-0.002
347.06	-0.002
347.26	-0.002
347.47	-0.002
347.68	-0.002
347.89	-0.002
348.10	-0.002
348.31	-0.002
348.52	-0.002
348.73	-0.002
348.93	-0.002
349.14	-0.002
349.35	-0.002
349.56	-0.002
349.77	-0.002
349.98	-0.002
350.19	-0.002
350.39	-0.002
350.60	-0.002
350.81	-0.002
351.02	-0.002
351.23	-0.002
351.44	-0.002
351.65	-0.002
351.86	-0.002
352.06	-0.002
352.27	-0.002
352.48	-0.002
352.69	-0.002
352.90	-0.002
353.11	-0.002
353.31	-0.002
353.52	-0.002
353.73	-0.002
353.94	-0.002
354.15	-0.002
354.36	-0.002
354.57	-0.002
354.77	-0.002
354.98	-0.002
355.19	-0.002
355.40	-0.002
355.61	-0.002
355.82	-0.002
356.02	-0.002
356.23	-0.002
356.44	-0.002
356.65	-0.002
356.86	-0.002
357.07	-0.002
357.27	-0.002
357.48	-0.002
357.69	-0.002
357.90	-0.002
358.11	-0.002
358.32	-0.002
358.52	-0.002
358.73	-0.002
358.94	-0.002
359.15	-0.002
359.36	-0.002
359.56	-0.002
359.77	-0.002
359.98	-0.002
360.19	-0.002
360.40	-0.002
360.61	-0.002
360.81	-0.002
361.02	-0.002
361.23	-0.002
361.44	-0.001
361.65	-0.001
361.85	-0.001
362.06	-0.001
362.27	-0.001
362.48	-0.001
362.69	-0.001
362.89	-0.001
363.10	-0.001
363.31	-0.001
363.52	-0.001
363.73	-0.001
363.93	-0.001
364.14	-0.001
364.35	-0.001
364.56	-0.001
364.77	-0.001
364.97	-0.001
365.18	-0.001
365.39	-0.001
365.60	-0.001
365.81	-0.001
366.01	-0.000
366.22	-0.000
366.43	-0.000
366.64	-0.000
366.84	-0.000
367.05	-0.000
367.26	-0.000
367.47	-0.000
367.68	-0.000
367.88	-0.000
368.09	-0.000
368.30	-0.000
368.51	-0.000
368.71	-0.000
368.92	-0.000
369.13	-0.000
369.34	-0.000
369.55	-0.000
369.75	-0.000
369.96	-0.000
370.17	-0.000
370.38	-0.001
370.58	-0.001
370.79	-0.001
371.00	-0.001
371.21	-0.001
371.41	-0.001
371.62	-0.001
371.83	-0.001
372.04	-0.001
372.24	-0.001
372.45	-0.001
372.66	-0.001
372.87	-0.001
373.07	-0.001
373.28	-0.001
373.49	-0.001
373.70	-0.001
373.90	-0.001
374.11	-0.001
374.32	-0.001
374.53	-0.001
374.73	-0.001
374.94	-0.001
375.15	-0.001
375.36	-0.001
375.56	-0.001
375.77	-0.001
375.98	-0.001
376.19	-0.001
376.39	-0.001
376.60	-0.001
376.81	-0.001
377.02	-0.001
377.22	-0.001
377.43	-0.001
377.64	-0.000
377.84	-0.000
378.05	-0.000
378.26	-0.000
378.47	-0.000
378.67	-0.000
378.88	-0.000
379.09	-0.000
379.30	-0.000
379.50	-0.000
379.71	-0.000
379.92	-0.000
380.12	-0.000
380.33	-0.000
380.54	-0.000
380.75	-0.000
380.95	-0.000
381.16	-0.000
381.37	-0.000
381.57	-0.000
381.78	-0.000
381.99	-0.000
382.20	-0.000
382.40	-0.001
382.61	-0.001
382.82	-0.001
383.02	-0.001
383.23	-0.001
383.44	-0.001
383.64	-0.001
383.85	-0.001
384.06	-0.001
384.27	-0.001
384.47	-0.001
384.68	-0.001
384.89	-0.001
385.09	-0.001
385.30	-0.001
385.51	-0.001
385.71	-0.001
385.92	-0.001
386.13	-0.001
386.33	-0.001
386.54	-0.001
386.75	-0.001
386.95	-0.001
387.16	-0.001
387.37	-0.001
387.58	-0.001
387.78	-0.001
387.99	-0.001
388.20	-0.001
388.40	-0.001
388.61	-0.001
388.82	-0.001
389.02	-0.001
389.23	-0.001
389.44	-0.001
389.64	-0.001
389.85	-0.001
390.06	-0.000
390.26	-0.000
390.47	-0.000
390.68	-0.000
390.88	-0.000
391.09	-0.000
391.30	-0.000
391.50	-0.000
391.71	-0.000
391.92	-0.000
392.12	-0.000
392.33	-0.000
392.53	-0.000
392.74	-0.000
392.95	-0.000
393.15	-0.000
393.36	-0.000
393.57	-0.000
393.77	-0.000
393.98	0.000
394.19	-0.000
394.39	-0.000
394.60	-0.000
394.81	-0.000
395.01	-0.000
395.22	-0.000
395.43	-0.001
395.63	-0.001
395.84	-0.001
396.04	-0.001
396.25	-0.001
396.46	-0.001
396.66	-0.000
396.87	-0.000
397.08	-0.000
397.28	-0.000
397.49	-0.000
397.69	-0.000
397.90	-0.000
398.11	-0.000
398.31	-0.000
398.52	-0.000
398.73	-0.000
398.93	-0.000
399.14	-0.000
399.34	-0.000
399.55	-0.000
399.76	-0.000
399.96	-0.000
400.17	-0.000
400.37	-0.000
400.58	-0.000
400.79	-0.000
400.99	-0.000
401.20	-0.000
401.41	-0.000
401.61	-0.000
401.82	-0.000
402.02	-0.001
402.23	-0.001
402.44	-0.001
402.64	-0.001
402.85	-0.001
403.05	-0.001
403.26	-0.001
403.47	-0.001
403.67	-0.001
403.88	-0.001
404.08	-0.001
404.29	-0.001
404.50	-0.001
404.70	-0.000
404.91	-0.000
405.11	-0.000
405.32	-0.000
405.52	-0.000
405.73	-0.000
405.94	-0.000
406.14	-0.000
406.35	-0.000
406.55	-0.000
406.76	-0.001
406.97	-0.001
407.17	-0.001
407.38	-0.001
407.58	-0.001
407.79	-0.001
407.99	-0.001
408.20	-0.001
408.41	-0.001
408.61	-0.001
408.82	-0.001
409.02	-0.001
409.23	-0.001
409.43	-0.001
409.64	-0.001
409.84	-0.001
410.05	-0.001
410.26	-0.001
410.46	-0.001
410.67	-0.001
410.87	-0.001
411.08	-0.001
411.28	-0.001
411.49	-0.001
411.69	-0.001
411.90	-0.001
412.11	-0.001
412.31	-0.001
412.52	-0.001
412.72	-0.001
412.93	-0.001
413.13	-0.001
413.34	-0.001
413.54	-0.001
413.75	-0.001
413.95	-0.001
414.16	-0.001
414.37	-0.001
414.57	-0.001
414.78	-0.001
414.98	-0.001
415.19	-0.001
415.39	-0.001
415.60	-0.001
415.80	-0.001
416.01	-0.001
416.21	-0.001
416.42	-0.001
416.62	-0.001
416.83	-0.001
417.03	-0.001
417.24	-0.001
417.44	-0.001
417.65	-0.001
417.86	-0.001
418.06	-0.001
418.27	-0.001
418.47	-0.001
418.68	-0.001
418.88	-0.001
419.09	-0.002
419.29	-0.001
419.50	-0.001
419.70	-0.001
419.91	-0.001
420.11	-0.001
420.32	-0.001
420.52	-0.001
420.73	-0.001
420.93	-0.000
421.14	-0.000
421.34	-0.000
421.55	-0.000
421.75	-0.000
421.96	-0.000
422.16	-0.000
422.37	-0.000
422.57	-0.000
422.78	-0.000
422.98	-0.000
423.19	-0.000
423.39	-0.000
423.60	-0.000
423.80	-0.000
424.01	-0.000
424.21	-0.000
424.42	-0.000
424.62	-0.001
424.83	-0.001
425.03	-0.001
425.23	-0.001
425.44	-0.001
425.64	-0.001
425.85	-0.001
426.05	-0.001
426.26	-0.001
426.46	-0.001
426.67	-0.001
426.87	-0.001
427.08	-0.002
427.28	-0.001
427.49	-0.001
427.69	-0.001
427.90	-0.001
428.10	-0.001
428.31	-0.001
428.51	-0.001
428.71	-0.001
428.92	-0.000
429.12	-0.000
429.33	-0.000
429.53	-0.000
429.74	-0.000
429.94	0.000
430.15	-0.000
430.35	-0.000
430.56	-0.000
430.76	-0.000
430.96	-0.000
431.17	-0.000
431.37	0.000
431.58	0.000
431.78	-0.000
431.99	-0.000
432.19	-0.000
432.40	-0.000
432.60	-0.000
432.80	-0.001
433.01	-0.001
433.21	-0.001
433.42	-0.001
433.62	-0.001
433.83	-0.001
434.03	-0.001
434.23	-0.001
434.44	-0.001
434.64	-0.001
434.85	-0.001
435.05	-0.001
435.26	-0.001
435.46	-0.001
435.66	-0.001
435.87	-0.001
436.07	-0.001
436.28	-0.001
436.48	-0.001
436.69	-0.001
436.89	-0.001
437.09	-0.001
437.30	-0.001
437.50	-0.001
437.71	-0.001
437.91	-0.001
438.11	-0.001
438.32	-0.001
438.52	-0.001
438.73	-0.001
438.93	-0.001
439.13	-0.001
439.34	-0.001
439.54	-0.001
439.75	-0.001
439.95	-0.001
440.15	-0.001
440.36	-0.001
440.56	-0.001
440.77	-0.001
440.97	-0.001
441.17	-0.001
441.38	-0.001
441.58	-0.001
441.79	-0.001
441.99	-0.001
442.19	-0.001
442.40	-0.001
442.60	-0.001
442.81	-0.001
443.01	-0.001
443.21	-0.001
443.42	-0.001
443.62	-0.001
443.82	-0.001
444.03	-0.001
444.23	-0.001
444.44	-0.001
444.64	-0.001
444.84	-0.001
445.05	-0.001
445.25	-0.001
445.45	-0.001
445.66	-0.001
445.86	-0.001
446.06	-0.001
446.27	-0.001
446.47	-0.001
446.68	-0.001
446.88	-0.001
447.08	-0.001
447.29	-0.001
447.49	-0.001
447.69	-0.001
447.90	-0.001
448.10	-0.001
448.30	-0.001
448.51	-0.001
448.71	-0.001
448.91	-0.001
449.12	-0.001
449.32	-0.001
449.52	-0.001
449.73	-0.001
449.93	-0.001
450.14	-0.001
