SpectraSuite Data File
++++++++++++++++++++++++++++++++++++
Date: Mon Jun 15 07:44:33 PDT 2015
User: introlabs
Dark Spectrum Present: Yes
Reference Spectrum Present: Yes
Number of Sampled Component Spectra: 1
Spectrometers: USB4H08886
Integration Time (usec): 44366 (USB4H08886)
Spectra Averaged: 20 (USB4H08886)
Boxcar Smoothing: 5 (USB4H08886)
Correct for Electrical Dark: Yes (USB4H08886)
Strobe/Lamp Enabled: No (USB4H08886)
Correct for Detector Non-linearity: Yes (USB4H08886)
Correct for Stray Light: Yes (USB4H08886)
Number of Pixels in Processed Spectrum: 3648
>>>>>Begin Processed Spectral Data<<<<<
178.14	-0.000
178.36	-0.000
178.57	-0.000
178.79	-0.000
179.01	-0.988
179.22	-0.000
179.44	0.278
179.65	-0.000
179.87	-0.000
180.08	-0.000
180.30	-0.000
180.52	0.830
180.73	0.353
180.95	0.041
181.16	0.025
181.38	0.015
181.59	0.013
181.81	-0.004
182.03	0.006
182.24	0.008
182.46	0.011
182.67	0.008
182.89	0.011
183.10	0.019
183.32	0.023
183.54	0.010
183.75	0.010
183.97	0.015
184.18	0.021
184.40	0.012
184.61	0.017
184.83	0.020
185.04	0.014
185.26	0.021
185.48	0.009
185.69	0.008
185.91	0.018
186.12	0.018
186.34	0.019
186.55	0.009
186.77	0.015
186.98	0.007
187.20	0.000
187.42	0.011
187.63	0.012
187.85	0.018
188.06	0.019
188.28	0.027
188.49	0.026
188.71	0.025
188.92	0.021
189.14	0.018
189.36	0.025
189.57	0.030
189.79	0.019
190.00	0.016
190.22	0.019
190.43	0.024
190.65	0.014
190.86	0.023
191.08	0.019
191.29	0.022
191.51	0.023
191.72	0.014
191.94	0.009
192.16	0.009
192.37	0.008
192.59	0.008
192.80	0.001
193.02	0.011
193.23	0.014
193.45	0.012
193.66	0.017
193.88	0.016
194.09	0.023
194.31	0.020
194.52	0.019
194.74	0.018
194.95	0.014
195.17	0.014
195.38	0.004
195.60	-0.008
195.81	-0.001
196.03	-0.001
196.25	0.011
196.46	0.010
196.68	0.022
196.89	0.032
197.11	0.036
197.32	0.033
197.54	0.028
197.75	0.036
197.97	0.040
198.18	0.038
198.40	0.039
198.61	0.019
198.83	0.013
199.04	0.011
199.26	0.001
199.47	-0.006
199.69	0.005
199.90	0.019
200.12	0.009
200.33	0.011
200.55	0.005
200.76	0.002
200.98	0.008
201.19	0.009
201.41	0.001
201.62	0.007
201.84	0.013
202.05	0.011
202.27	0.005
202.48	0.005
202.70	0.010
202.91	0.014
203.13	0.014
203.34	0.010
203.56	0.008
203.77	0.014
203.99	0.006
204.20	0.002
204.42	0.001
204.63	-0.000
204.85	-0.002
205.06	-0.010
205.28	-0.004
205.49	-0.006
205.71	0.006
205.92	0.008
206.14	0.002
206.35	0.010
206.56	0.017
206.78	0.008
206.99	0.007
207.21	0.019
207.42	0.022
207.64	0.015
207.85	0.019
208.07	0.019
208.28	0.020
208.50	0.026
208.71	0.026
208.93	0.027
209.14	0.035
209.36	0.035
209.57	0.031
209.79	0.031
210.00	0.037
210.22	0.038
210.43	0.032
210.64	0.031
210.86	0.022
211.07	0.024
211.29	0.015
211.50	0.013
211.72	0.007
211.93	0.005
212.15	0.003
212.36	-0.002
212.58	-0.005
212.79	-0.003
213.01	-0.006
213.22	0.003
213.43	-0.005
213.65	0.001
213.86	0.002
214.08	0.014
214.29	0.015
214.51	0.016
214.72	0.012
214.94	0.013
215.15	0.015
215.36	0.017
215.58	0.018
215.79	0.018
216.01	0.020
216.22	0.020
216.44	0.013
216.65	0.003
216.87	0.002
217.08	0.004
217.29	0.008
217.51	0.006
217.72	0.009
217.94	0.013
218.15	0.022
218.37	0.013
218.58	0.009
218.80	0.015
219.01	0.017
219.22	0.021
219.44	0.024
219.65	0.019
219.87	0.017
220.08	0.008
220.30	0.001
220.51	-0.006
220.72	0.002
220.94	-0.001
221.15	-0.003
221.37	-0.002
221.58	-0.002
221.79	0.001
222.01	-0.005
222.22	-0.006
222.44	0.001
222.65	0.000
222.87	-0.001
223.08	-0.002
223.29	0.003
223.51	-0.001
223.72	-0.001
223.94	-0.009
224.15	-0.012
224.36	-0.006
224.58	-0.009
224.79	-0.008
225.01	-0.009
225.22	-0.010
225.44	-0.014
225.65	-0.012
225.86	-0.005
226.08	-0.003
226.29	-0.002
226.51	0.002
226.72	0.001
226.93	0.008
227.15	0.003
227.36	0.005
227.58	0.008
227.79	0.011
228.00	0.010
228.22	0.005
228.43	0.006
228.65	0.008
228.86	0.008
229.07	0.008
229.29	0.005
229.50	0.009
229.72	0.010
229.93	0.011
230.14	0.013
230.36	0.011
230.57	0.011
230.78	0.013
231.00	0.010
231.21	0.006
231.43	0.007
231.64	0.010
231.85	0.009
232.07	0.008
232.28	0.007
232.50	0.004
232.71	0.004
232.92	0.004
233.14	0.001
233.35	0.003
233.56	0.004
233.78	0.004
233.99	0.001
234.21	-0.000
234.42	0.000
234.63	0.000
234.85	0.000
235.06	-0.001
235.27	-0.001
235.49	0.002
235.70	0.001
235.91	-0.000
236.13	0.000
236.34	-0.001
236.56	0.000
236.77	-0.001
236.98	-0.000
237.20	-0.001
237.41	0.000
237.62	0.001
237.84	-0.001
238.05	-0.000
238.26	0.000
238.48	-0.001
238.69	0.001
238.91	0.001
239.12	0.001
239.33	0.001
239.55	0.002
239.76	0.002
239.97	0.001
240.19	0.003
240.40	0.002
240.61	0.002
240.83	0.003
241.04	0.001
241.25	0.001
241.47	0.002
241.68	0.003
241.89	0.003
242.11	0.003
242.32	0.004
242.53	0.003
242.75	0.004
242.96	0.005
243.17	0.006
243.39	0.006
243.60	0.006
243.81	0.006
244.03	0.006
244.24	0.006
244.45	0.006
244.67	0.007
244.88	0.008
245.09	0.008
245.31	0.008
245.52	0.007
245.73	0.007
245.95	0.007
246.16	0.007
246.37	0.007
246.59	0.007
246.80	0.007
247.01	0.007
247.23	0.006
247.44	0.005
247.65	0.005
247.87	0.005
248.08	0.006
248.29	0.006
248.51	0.006
248.72	0.006
248.93	0.006
249.15	0.007
249.36	0.007
249.57	0.007
249.78	0.007
250.00	0.007
250.21	0.008
250.42	0.008
250.64	0.007
250.85	0.008
251.06	0.008
251.28	0.008
251.49	0.008
251.70	0.008
251.92	0.008
252.13	0.008
252.34	0.008
252.55	0.008
252.77	0.008
252.98	0.008
253.19	0.008
253.41	0.008
253.62	0.008
253.83	0.008
254.05	0.008
254.26	0.008
254.47	0.007
254.68	0.007
254.90	0.007
255.11	0.007
255.32	0.008
255.54	0.008
255.75	0.008
255.96	0.008
256.17	0.008
256.39	0.008
256.60	0.008
256.81	0.008
257.03	0.008
257.24	0.008
257.45	0.008
257.66	0.008
257.88	0.008
258.09	0.007
258.30	0.007
258.51	0.007
258.73	0.007
258.94	0.007
259.15	0.007
259.37	0.006
259.58	0.006
259.79	0.006
260.00	0.006
260.22	0.006
260.43	0.006
260.64	0.006
260.85	0.006
261.07	0.006
261.28	0.006
261.49	0.006
261.71	0.006
261.92	0.007
262.13	0.007
262.34	0.007
262.56	0.007
262.77	0.007
262.98	0.007
263.19	0.007
263.41	0.006
263.62	0.006
263.83	0.006
264.04	0.005
264.26	0.005
264.47	0.005
264.68	0.005
264.89	0.004
265.11	0.004
265.32	0.005
265.53	0.005
265.74	0.005
265.96	0.005
266.17	0.005
266.38	0.005
266.59	0.005
266.81	0.005
267.02	0.005
267.23	0.004
267.44	0.004
267.65	0.003
267.87	0.003
268.08	0.003
268.29	0.003
268.50	0.003
268.72	0.003
268.93	0.003
269.14	0.003
269.35	0.003
269.57	0.003
269.78	0.003
269.99	0.003
270.20	0.003
270.41	0.003
270.63	0.003
270.84	0.003
271.05	0.003
271.26	0.002
271.48	0.003
271.69	0.002
271.90	0.003
272.11	0.002
272.32	0.002
272.54	0.002
272.75	0.002
272.96	0.002
273.17	0.002
273.39	0.002
273.60	0.002
273.81	0.002
274.02	0.002
274.23	0.002
274.45	0.002
274.66	0.002
274.87	0.002
275.08	0.001
275.29	0.001
275.51	0.001
275.72	0.002
275.93	0.001
276.14	0.002
276.35	0.002
276.57	0.001
276.78	0.001
276.99	0.002
277.20	0.002
277.41	0.002
277.63	0.002
277.84	0.002
278.05	0.001
278.26	0.001
278.47	0.001
278.69	0.001
278.90	0.002
279.11	0.002
279.32	0.001
279.53	0.002
279.74	0.002
279.96	0.002
280.17	0.002
280.38	0.002
280.59	0.002
280.80	0.002
281.02	0.003
281.23	0.003
281.44	0.003
281.65	0.003
281.86	0.003
282.07	0.003
282.29	0.003
282.50	0.003
282.71	0.003
282.92	0.003
283.13	0.003
283.35	0.003
283.56	0.003
283.77	0.003
283.98	0.003
284.19	0.003
284.40	0.004
284.62	0.004
284.83	0.004
285.04	0.004
285.25	0.005
285.46	0.005
285.67	0.005
285.88	0.005
286.10	0.005
286.31	0.005
286.52	0.005
286.73	0.005
286.94	0.006
287.15	0.006
287.37	0.006
287.58	0.006
287.79	0.006
288.00	0.007
288.21	0.007
288.42	0.007
288.63	0.007
288.85	0.007
289.06	0.007
289.27	0.007
289.48	0.007
289.69	0.007
289.90	0.007
290.11	0.008
290.33	0.008
290.54	0.008
290.75	0.008
290.96	0.008
291.17	0.008
291.38	0.008
291.59	0.009
291.81	0.008
292.02	0.009
292.23	0.009
292.44	0.009
292.65	0.009
292.86	0.009
293.07	0.009
293.28	0.009
293.50	0.009
293.71	0.009
293.92	0.009
294.13	0.009
294.34	0.009
294.55	0.009
294.76	0.009
294.97	0.010
295.19	0.010
295.40	0.010
295.61	0.010
295.82	0.010
296.03	0.010
296.24	0.010
296.45	0.009
296.66	0.009
296.87	0.009
297.09	0.009
297.30	0.009
297.51	0.009
297.72	0.009
297.93	0.009
298.14	0.009
298.35	0.009
298.56	0.009
298.77	0.009
298.99	0.009
299.20	0.009
299.41	0.009
299.62	0.009
299.83	0.009
300.04	0.009
300.25	0.009
300.46	0.009
300.67	0.009
300.88	0.009
301.10	0.009
301.31	0.009
301.52	0.009
301.73	0.009
301.94	0.009
302.15	0.009
302.36	0.009
302.57	0.009
302.78	0.009
302.99	0.009
303.20	0.009
303.41	0.009
303.63	0.009
303.84	0.009
304.05	0.009
304.26	0.009
304.47	0.009
304.68	0.009
304.89	0.009
305.10	0.009
305.31	0.009
305.52	0.009
305.73	0.009
305.94	0.009
306.15	0.009
306.37	0.009
306.58	0.009
306.79	0.009
307.00	0.009
307.21	0.009
307.42	0.009
307.63	0.009
307.84	0.009
308.05	0.009
308.26	0.009
308.47	0.009
308.68	0.009
308.89	0.009
309.10	0.009
309.31	0.009
309.52	0.009
309.73	0.009
309.95	0.008
310.16	0.008
310.37	0.008
310.58	0.008
310.79	0.008
311.00	0.008
311.21	0.009
311.42	0.008
311.63	0.009
311.84	0.009
312.05	0.009
312.26	0.009
312.47	0.009
312.68	0.009
312.89	0.009
313.10	0.009
313.31	0.009
313.52	0.009
313.73	0.009
313.94	0.009
314.15	0.009
314.36	0.009
314.57	0.009
314.78	0.009
314.99	0.009
315.21	0.009
315.42	0.009
315.63	0.009
315.84	0.009
316.05	0.009
316.26	0.009
316.47	0.009
316.68	0.009
316.89	0.009
317.10	0.008
317.31	0.009
317.52	0.009
317.73	0.009
317.94	0.009
318.15	0.009
318.36	0.009
318.57	0.009
318.78	0.009
318.99	0.009
319.20	0.009
319.41	0.009
319.62	0.009
319.83	0.009
320.04	0.009
320.25	0.009
320.46	0.009
320.67	0.009
320.88	0.009
321.09	0.009
321.30	0.009
321.51	0.008
321.72	0.008
321.93	0.008
322.14	0.008
322.35	0.008
322.56	0.009
322.77	0.009
322.98	0.008
323.19	0.008
323.40	0.008
323.61	0.008
323.82	0.008
324.03	0.008
324.24	0.009
324.45	0.008
324.66	0.008
324.87	0.008
325.08	0.008
325.29	0.008
325.50	0.008
325.71	0.008
325.92	0.008
326.13	0.008
326.34	0.008
326.55	0.008
326.76	0.008
326.97	0.008
327.18	0.008
327.39	0.008
327.60	0.008
327.80	0.008
328.01	0.008
328.22	0.008
328.43	0.008
328.64	0.008
328.85	0.008
329.06	0.008
329.27	0.008
329.48	0.008
329.69	0.008
329.90	0.008
330.11	0.008
330.32	0.008
330.53	0.008
330.74	0.008
330.95	0.008
331.16	0.008
331.37	0.008
331.58	0.008
331.79	0.008
332.00	0.008
332.21	0.008
332.42	0.008
332.63	0.008
332.83	0.008
333.04	0.008
333.25	0.008
333.46	0.008
333.67	0.008
333.88	0.008
334.09	0.008
334.30	0.008
334.51	0.008
334.72	0.008
334.93	0.008
335.14	0.008
335.35	0.008
335.56	0.008
335.77	0.008
335.98	0.008
336.18	0.008
336.39	0.008
336.60	0.008
336.81	0.008
337.02	0.008
337.23	0.008
337.44	0.008
337.65	0.008
337.86	0.008
338.07	0.008
338.28	0.008
338.49	0.008
338.70	0.007
338.91	0.007
339.11	0.007
339.32	0.007
339.53	0.007
339.74	0.007
339.95	0.007
340.16	0.007
340.37	0.007
340.58	0.007
340.79	0.007
341.00	0.007
341.21	0.007
341.41	0.007
341.62	0.007
341.83	0.007
342.04	0.007
342.25	0.007
342.46	0.007
342.67	0.007
342.88	0.007
343.09	0.007
343.30	0.007
343.50	0.007
343.71	0.007
343.92	0.007
344.13	0.007
344.34	0.007
344.55	0.007
344.76	0.007
344.97	0.007
345.18	0.007
345.38	0.007
345.59	0.007
345.80	0.007
346.01	0.007
346.22	0.007
346.43	0.007
346.64	0.007
346.85	0.007
347.06	0.007
347.26	0.007
347.47	0.007
347.68	0.007
347.89	0.007
348.10	0.007
348.31	0.006
348.52	0.006
348.73	0.006
348.93	0.006
349.14	0.006
349.35	0.006
349.56	0.006
349.77	0.006
349.98	0.006
350.19	0.006
350.39	0.006
350.60	0.006
350.81	0.006
351.02	0.006
351.23	0.006
351.44	0.006
351.65	0.006
351.86	0.006
352.06	0.006
352.27	0.006
352.48	0.006
352.69	0.007
352.90	0.007
353.11	0.007
353.31	0.007
353.52	0.007
353.73	0.007
353.94	0.006
354.15	0.006
354.36	0.006
354.57	0.006
354.77	0.006
354.98	0.006
355.19	0.006
355.40	0.006
355.61	0.006
355.82	0.006
356.02	0.006
356.23	0.006
356.44	0.006
356.65	0.006
356.86	0.006
357.07	0.006
357.27	0.006
357.48	0.006
357.69	0.006
357.90	0.006
358.11	0.006
358.32	0.006
358.52	0.006
358.73	0.006
358.94	0.006
359.15	0.006
359.36	0.006
359.56	0.006
359.77	0.006
359.98	0.006
360.19	0.006
360.40	0.006
360.61	0.006
360.81	0.006
361.02	0.006
361.23	0.006
361.44	0.006
361.65	0.006
361.85	0.006
362.06	0.006
362.27	0.006
362.48	0.006
362.69	0.006
362.89	0.006
363.10	0.006
363.31	0.006
363.52	0.006
363.73	0.006
363.93	0.006
364.14	0.006
364.35	0.006
364.56	0.006
364.77	0.006
364.97	0.006
365.18	0.006
365.39	0.006
365.60	0.006
365.81	0.006
366.01	0.006
366.22	0.006
366.43	0.006
366.64	0.006
366.84	0.006
367.05	0.006
367.26	0.006
367.47	0.006
367.68	0.006
367.88	0.006
368.09	0.006
368.30	0.006
368.51	0.006
368.71	0.006
368.92	0.006
369.13	0.006
369.34	0.006
369.55	0.006
369.75	0.006
369.96	0.006
370.17	0.006
370.38	0.006
370.58	0.006
370.79	0.006
371.00	0.006
371.21	0.006
371.41	0.006
371.62	0.005
371.83	0.006
372.04	0.006
372.24	0.006
372.45	0.006
372.66	0.006
372.87	0.006
373.07	0.006
373.28	0.006
373.49	0.006
373.70	0.006
373.90	0.006
374.11	0.006
374.32	0.005
374.53	0.005
374.73	0.005
374.94	0.005
375.15	0.005
375.36	0.006
375.56	0.006
375.77	0.005
375.98	0.005
376.19	0.005
376.39	0.005
376.60	0.005
376.81	0.005
377.02	0.005
377.22	0.005
377.43	0.005
377.64	0.005
377.84	0.005
378.05	0.005
378.26	0.005
378.47	0.005
378.67	0.005
378.88	0.005
379.09	0.005
379.30	0.005
379.50	0.005
379.71	0.005
379.92	0.005
380.12	0.005
380.33	0.005
380.54	0.005
380.75	0.005
380.95	0.005
381.16	0.005
381.37	0.005
381.57	0.005
381.78	0.005
381.99	0.005
382.20	0.005
382.40	0.005
382.61	0.005
382.82	0.005
383.02	0.005
383.23	0.005
383.44	0.005
383.64	0.005
383.85	0.005
384.06	0.005
384.27	0.005
384.47	0.005
384.68	0.005
384.89	0.005
385.09	0.005
385.30	0.005
385.51	0.005
385.71	0.005
385.92	0.005
386.13	0.005
386.33	0.005
386.54	0.005
386.75	0.005
386.95	0.005
387.16	0.005
387.37	0.005
387.58	0.005
387.78	0.005
387.99	0.005
388.20	0.005
388.40	0.005
388.61	0.005
388.82	0.005
389.02	0.005
389.23	0.005
389.44	0.005
389.64	0.005
389.85	0.005
390.06	0.005
390.26	0.005
390.47	0.005
390.68	0.004
390.88	0.005
391.09	0.005
391.30	0.005
391.50	0.004
391.71	0.004
391.92	0.004
392.12	0.004
392.33	0.004
392.53	0.004
392.74	0.005
392.95	0.005
393.15	0.005
393.36	0.005
393.57	0.005
393.77	0.005
393.98	0.005
394.19	0.005
394.39	0.005
394.60	0.005
394.81	0.005
395.01	0.005
395.22	0.004
395.43	0.004
395.63	0.004
395.84	0.004
396.04	0.005
396.25	0.004
396.46	0.004
396.66	0.004
396.87	0.004
397.08	0.004
397.28	0.005
397.49	0.005
397.69	0.005
397.90	0.005
398.11	0.005
398.31	0.005
398.52	0.005
398.73	0.005
398.93	0.005
399.14	0.004
399.34	0.004
399.55	0.004
399.76	0.004
399.96	0.004
400.17	0.004
400.37	0.004
400.58	0.004
400.79	0.004
400.99	0.004
401.20	0.004
401.41	0.004
401.61	0.004
401.82	0.004
402.02	0.004
402.23	0.004
402.44	0.004
402.64	0.004
402.85	0.004
403.05	0.004
403.26	0.004
403.47	0.004
403.67	0.004
403.88	0.004
404.08	0.004
404.29	0.004
404.50	0.004
404.70	0.004
404.91	0.004
405.11	0.004
405.32	0.004
405.52	0.004
405.73	0.004
405.94	0.004
406.14	0.004
406.35	0.004
406.55	0.004
406.76	0.004
406.97	0.004
407.17	0.004
407.38	0.004
407.58	0.004
407.79	0.004
407.99	0.004
408.20	0.004
408.41	0.004
408.61	0.004
408.82	0.004
409.02	0.004
409.23	0.004
409.43	0.004
409.64	0.004
409.84	0.004
410.05	0.004
410.26	0.004
410.46	0.004
410.67	0.004
410.87	0.004
411.08	0.004
411.28	0.004
411.49	0.004
411.69	0.004
411.90	0.004
412.11	0.004
412.31	0.004
412.52	0.004
412.72	0.004
412.93	0.004
413.13	0.004
413.34	0.004
413.54	0.004
413.75	0.004
413.95	0.004
414.16	0.004
414.37	0.004
414.57	0.004
414.78	0.004
414.98	0.004
415.19	0.004
415.39	0.004
415.60	0.004
415.80	0.004
416.01	0.004
416.21	0.004
416.42	0.004
416.62	0.004
416.83	0.004
417.03	0.004
417.24	0.004
417.44	0.004
417.65	0.004
417.86	0.004
418.06	0.003
418.27	0.003
418.47	0.003
418.68	0.004
418.88	0.004
419.09	0.004
419.29	0.004
419.50	0.004
419.70	0.004
419.91	0.004
420.11	0.004
420.32	0.004
420.52	0.004
420.73	0.004
420.93	0.004
421.14	0.004
421.34	0.004
421.55	0.004
421.75	0.004
421.96	0.004
422.16	0.004
422.37	0.003
422.57	0.003
422.78	0.003
422.98	0.003
423.19	0.003
423.39	0.004
423.60	0.004
423.80	0.003
424.01	0.003
424.21	0.004
424.42	0.004
424.62	0.004
424.83	0.004
425.03	0.004
425.23	0.004
425.44	0.004
425.64	0.004
425.85	0.004
426.05	0.004
426.26	0.004
426.46	0.004
426.67	0.004
426.87	0.003
427.08	0.003
427.28	0.004
427.49	0.004
427.69	0.004
427.90	0.004
428.10	0.004
428.31	0.004
428.51	0.004
428.71	0.004
428.92	0.003
429.12	0.003
429.33	0.003
429.53	0.003
429.74	0.003
429.94	0.003
430.15	0.003
430.35	0.004
430.56	0.004
430.76	0.004
430.96	0.004
431.17	0.004
431.37	0.004
431.58	0.004
431.78	0.004
431.99	0.004
432.19	0.004
432.40	0.004
432.60	0.004
432.80	0.004
433.01	0.004
433.21	0.004
433.42	0.004
433.62	0.004
433.83	0.004
434.03	0.004
434.23	0.004
434.44	0.004
434.64	0.004
434.85	0.004
435.05	0.004
435.26	0.004
435.46	0.004
435.66	0.004
435.87	0.004
436.07	0.003
436.28	0.003
436.48	0.003
436.69	0.003
436.89	0.003
437.09	0.003
437.30	0.003
437.50	0.003
437.71	0.003
437.91	0.003
438.11	0.003
438.32	0.003
438.52	0.003
438.73	0.003
438.93	0.003
439.13	0.003
439.34	0.003
439.54	0.004
439.75	0.003
439.95	0.003
440.15	0.003
440.36	0.003
440.56	0.003
440.77	0.003
440.97	0.003
441.17	0.003
441.38	0.003
441.58	0.003
441.79	0.003
441.99	0.003
442.19	0.003
442.40	0.003
442.60	0.003
442.81	0.003
443.01	0.003
443.21	0.003
443.42	0.003
443.62	0.003
443.82	0.003
444.03	0.003
444.23	0.003
444.44	0.003
444.64	0.003
444.84	0.003
445.05	0.003
445.25	0.003
445.45	0.003
445.66	0.003
445.86	0.003
446.06	0.003
446.27	0.003
446.47	0.003
446.68	0.003
446.88	0.003
447.08	0.003
447.29	0.003
447.49	0.003
447.69	0.003
447.90	0.003
448.10	0.003
448.30	0.003
448.51	0.003
448.71	0.003
448.91	0.003
449.12	0.003
449.32	0.003
449.52	0.003
449.73	0.003
449.93	0.003
450.14	0.003
450.34	0.003
450.54	0.003
450.75	0.003
450.95	0.003
451.15	0.003
451.36	0.003
451.56	0.003
451.76	0.003
451.97	0.003
452.17	0.003
452.37	0.003
452.58	0.003
452.78	0.003
452.98	0.003
453.19	0.003
453.39	0.003
453.59	0.003
453.79	0.003
454.00	0.003
454.20	0.003
454.40	0.003
454.61	0.003
454.81	0.003
455.01	0.003
455.22	0.003
455.42	0.003
455.62	0.003
455.83	0.003
456.03	0.003
456.23	0.003
456.44	0.003
456.64	0.003
456.84	0.003
457.04	0.003
457.25	0.003
457.45	0.003
457.65	0.003
457.86	0.003
458.06	0.003
458.26	0.003
458.47	0.003
458.67	0.003
458.87	0.003
459.07	0.003
459.28	0.003
459.48	0.003
459.68	0.003
459.89	0.003
460.09	0.003
460.29	0.003
460.49	0.003
460.70	0.003
460.90	0.003
461.10	0.003
461.31	0.003
461.51	0.003
461.71	0.003
461.91	0.003
462.12	0.003
462.32	0.003
462.52	0.003
462.72	0.003
462.93	0.003
463.13	0.003
463.33	0.003
463.53	0.003
463.74	0.003
463.94	0.003
464.14	0.003
464.35	0.003
464.55	0.003
464.75	0.003
464.95	0.003
465.16	0.003
465.36	0.003
465.56	0.003
465.76	0.003
465.97	0.003
466.17	0.003
466.37	0.003
466.57	0.003
466.78	0.003
466.98	0.003
