SpectraSuite Data File
++++++++++++++++++++++++++++++++++++
Date: Mon Jun 15 08:10:18 PDT 2015
User: introlabs
Dark Spectrum Present: Yes
Reference Spectrum Present: Yes
Number of Sampled Component Spectra: 1
Spectrometers: USB4H08886
Integration Time (usec): 44366 (USB4H08886)
Spectra Averaged: 20 (USB4H08886)
Boxcar Smoothing: 5 (USB4H08886)
Correct for Electrical Dark: Yes (USB4H08886)
Strobe/Lamp Enabled: No (USB4H08886)
Correct for Detector Non-linearity: Yes (USB4H08886)
Correct for Stray Light: Yes (USB4H08886)
Number of Pixels in Processed Spectrum: 3648
>>>>>Begin Processed Spectral Data<<<<<
178.14	0.559
178.36	0.559
178.57	0.559
178.79	0.860
179.01	-1.097
179.22	-0.008
179.44	-0.522
179.65	-0.000
179.87	-0.000
180.08	-0.000
180.30	-0.000
180.52	1.889
180.73	0.220
180.95	0.124
181.16	0.095
181.38	0.054
181.59	0.018
181.81	-0.001
182.03	0.012
182.24	0.018
182.46	0.011
182.67	0.006
182.89	0.008
183.10	0.014
183.32	0.008
183.54	-0.008
183.75	-0.001
183.97	0.010
184.18	0.005
184.40	-0.002
184.61	-0.004
184.83	0.008
185.04	0.011
185.26	0.021
185.48	0.019
185.69	0.019
185.91	0.024
186.12	0.027
186.34	0.029
186.55	0.017
186.77	0.021
186.98	0.022
187.20	0.009
187.42	0.015
187.63	0.003
187.85	-0.000
188.06	0.007
188.28	0.006
188.49	0.005
188.71	0.008
188.92	0.014
189.14	0.007
189.36	0.004
189.57	0.008
189.79	-0.005
190.00	-0.002
190.22	0.001
190.43	0.005
190.65	0.005
190.86	0.005
191.08	-0.005
191.29	0.002
191.51	0.004
191.72	0.000
191.94	0.001
192.16	0.006
192.37	0.009
192.59	0.011
192.80	0.002
193.02	0.004
193.23	0.011
193.45	0.008
193.66	0.009
193.88	0.014
194.09	0.019
194.31	0.018
194.52	0.016
194.74	0.009
194.95	0.004
195.17	0.006
195.38	0.005
195.60	-0.007
195.81	0.010
196.03	0.003
196.25	0.009
196.46	0.008
196.68	0.008
196.89	0.008
197.11	0.012
197.32	0.012
197.54	0.006
197.75	0.022
197.97	0.023
198.18	0.009
198.40	0.016
198.61	0.005
198.83	0.003
199.04	0.004
199.26	0.002
199.47	0.001
199.69	0.011
199.90	0.024
200.12	0.010
200.33	0.015
200.55	0.017
200.76	0.010
200.98	0.008
201.19	0.007
201.41	0.005
201.62	0.009
201.84	0.015
202.05	0.012
202.27	0.001
202.48	0.004
202.70	0.007
202.91	0.004
203.13	0.008
203.34	0.003
203.56	0.008
203.77	0.011
203.99	0.007
204.20	0.002
204.42	-0.002
204.63	0.006
204.85	0.001
205.06	-0.003
205.28	0.002
205.49	0.005
205.71	0.015
205.92	0.015
206.14	0.009
206.35	0.012
206.56	0.016
206.78	0.017
206.99	0.015
207.21	0.025
207.42	0.026
207.64	0.025
207.85	0.023
208.07	0.023
208.28	0.021
208.50	0.029
208.71	0.031
208.93	0.030
209.14	0.031
209.36	0.035
209.57	0.031
209.79	0.033
210.00	0.028
210.22	0.031
210.43	0.031
210.64	0.038
210.86	0.036
211.07	0.028
211.29	0.022
211.50	0.019
211.72	0.013
211.93	0.009
212.15	0.002
212.36	0.002
212.58	0.001
212.79	0.001
213.01	-0.013
213.22	-0.012
213.43	-0.007
213.65	-0.006
213.86	-0.004
214.08	0.001
214.29	0.001
214.51	0.005
214.72	0.010
214.94	0.007
215.15	0.009
215.36	0.018
215.58	0.012
215.79	0.014
216.01	0.021
216.22	0.021
216.44	0.014
216.65	0.014
216.87	0.018
217.08	0.019
217.29	0.026
217.51	0.023
217.72	0.016
217.94	0.021
218.15	0.020
218.37	0.015
218.58	0.013
218.80	0.015
219.01	0.015
219.22	0.011
219.44	0.008
219.65	0.004
219.87	0.005
220.08	0.004
220.30	0.001
220.51	-0.003
220.72	-0.006
220.94	-0.008
221.15	-0.006
221.37	-0.010
221.58	-0.009
221.79	-0.006
222.01	-0.017
222.22	-0.023
222.44	-0.018
222.65	-0.024
222.87	-0.022
223.08	-0.022
223.29	-0.016
223.51	-0.015
223.72	-0.017
223.94	-0.020
224.15	-0.019
224.36	-0.011
224.58	-0.008
224.79	-0.005
225.01	-0.004
225.22	-0.006
225.44	-0.008
225.65	-0.006
225.86	-0.005
226.08	0.002
226.29	0.001
226.51	0.002
226.72	0.002
226.93	0.004
227.15	-0.003
227.36	-0.001
227.58	-0.002
227.79	0.002
228.00	-0.007
228.22	-0.014
228.43	-0.021
228.65	-0.020
228.86	-0.023
229.07	-0.025
229.29	-0.029
229.50	-0.028
229.72	-0.029
229.93	-0.029
230.14	-0.029
230.36	-0.027
230.57	-0.025
230.78	-0.024
231.00	-0.026
231.21	-0.029
231.43	-0.028
231.64	-0.024
231.85	-0.022
232.07	-0.023
232.28	-0.023
232.50	-0.024
232.71	-0.025
232.92	-0.025
233.14	-0.026
233.35	-0.025
233.56	-0.025
233.78	-0.027
233.99	-0.029
234.21	-0.029
234.42	-0.031
234.63	-0.032
234.85	-0.032
235.06	-0.032
235.27	-0.032
235.49	-0.030
235.70	-0.031
235.91	-0.031
236.13	-0.030
236.34	-0.031
236.56	-0.033
236.77	-0.031
236.98	-0.029
237.20	-0.029
237.41	-0.028
237.62	-0.028
237.84	-0.030
238.05	-0.029
238.26	-0.031
238.48	-0.031
238.69	-0.030
238.91	-0.029
239.12	-0.029
239.33	-0.029
239.55	-0.029
239.76	-0.029
239.97	-0.028
240.19	-0.027
240.40	-0.027
240.61	-0.026
240.83	-0.026
241.04	-0.026
241.25	-0.026
241.47	-0.025
241.68	-0.023
241.89	-0.023
242.11	-0.022
242.32	-0.022
242.53	-0.022
242.75	-0.021
242.96	-0.020
243.17	-0.019
243.39	-0.019
243.60	-0.019
243.81	-0.019
244.03	-0.020
244.24	-0.019
244.45	-0.019
244.67	-0.018
244.88	-0.017
245.09	-0.017
245.31	-0.017
245.52	-0.017
245.73	-0.017
245.95	-0.016
246.16	-0.015
246.37	-0.015
246.59	-0.015
246.80	-0.015
247.01	-0.015
247.23	-0.015
247.44	-0.015
247.65	-0.015
247.87	-0.014
248.08	-0.014
248.29	-0.014
248.51	-0.013
248.72	-0.013
248.93	-0.013
249.15	-0.013
249.36	-0.013
249.57	-0.013
249.78	-0.013
250.00	-0.013
250.21	-0.012
250.42	-0.012
250.64	-0.012
250.85	-0.011
251.06	-0.011
251.28	-0.011
251.49	-0.011
251.70	-0.011
251.92	-0.010
252.13	-0.010
252.34	-0.009
252.55	-0.010
252.77	-0.010
252.98	-0.010
253.19	-0.010
253.41	-0.010
253.62	-0.009
253.83	-0.009
254.05	-0.009
254.26	-0.009
254.47	-0.009
254.68	-0.009
254.90	-0.009
255.11	-0.008
255.32	-0.008
255.54	-0.008
255.75	-0.008
255.96	-0.008
256.17	-0.008
256.39	-0.008
256.60	-0.008
256.81	-0.008
257.03	-0.008
257.24	-0.008
257.45	-0.008
257.66	-0.008
257.88	-0.008
258.09	-0.008
258.30	-0.008
258.51	-0.008
258.73	-0.009
258.94	-0.009
259.15	-0.009
259.37	-0.009
259.58	-0.009
259.79	-0.009
260.00	-0.009
260.22	-0.009
260.43	-0.009
260.64	-0.009
260.85	-0.009
261.07	-0.009
261.28	-0.009
261.49	-0.009
261.71	-0.009
261.92	-0.009
262.13	-0.009
262.34	-0.009
262.56	-0.009
262.77	-0.008
262.98	-0.008
263.19	-0.008
263.41	-0.008
263.62	-0.008
263.83	-0.008
264.04	-0.008
264.26	-0.009
264.47	-0.009
264.68	-0.009
264.89	-0.009
265.11	-0.009
265.32	-0.009
265.53	-0.009
265.74	-0.009
265.96	-0.009
266.17	-0.009
266.38	-0.009
266.59	-0.009
266.81	-0.009
267.02	-0.009
267.23	-0.009
267.44	-0.010
267.65	-0.010
267.87	-0.010
268.08	-0.011
268.29	-0.011
268.50	-0.011
268.72	-0.011
268.93	-0.011
269.14	-0.011
269.35	-0.011
269.57	-0.011
269.78	-0.010
269.99	-0.011
270.20	-0.011
270.41	-0.011
270.63	-0.011
270.84	-0.012
271.05	-0.012
271.26	-0.012
271.48	-0.012
271.69	-0.012
271.90	-0.013
272.11	-0.013
272.32	-0.013
272.54	-0.013
272.75	-0.013
272.96	-0.013
273.17	-0.013
273.39	-0.013
273.60	-0.013
273.81	-0.013
274.02	-0.013
274.23	-0.013
274.45	-0.013
274.66	-0.013
274.87	-0.013
275.08	-0.013
275.29	-0.013
275.51	-0.013
275.72	-0.013
275.93	-0.013
276.14	-0.013
276.35	-0.013
276.57	-0.013
276.78	-0.013
276.99	-0.014
277.20	-0.013
277.41	-0.013
277.63	-0.013
277.84	-0.013
278.05	-0.013
278.26	-0.013
278.47	-0.013
278.69	-0.013
278.90	-0.012
279.11	-0.012
279.32	-0.012
279.53	-0.012
279.74	-0.012
279.96	-0.011
280.17	-0.011
280.38	-0.011
280.59	-0.011
280.80	-0.011
281.02	-0.011
281.23	-0.011
281.44	-0.011
281.65	-0.011
281.86	-0.011
282.07	-0.011
282.29	-0.011
282.50	-0.010
282.71	-0.011
282.92	-0.010
283.13	-0.010
283.35	-0.010
283.56	-0.010
283.77	-0.010
283.98	-0.010
284.19	-0.010
284.40	-0.009
284.62	-0.009
284.83	-0.009
285.04	-0.009
285.25	-0.008
285.46	-0.008
285.67	-0.008
285.88	-0.008
286.10	-0.007
286.31	-0.007
286.52	-0.006
286.73	-0.006
286.94	-0.006
287.15	-0.005
287.37	-0.005
287.58	-0.004
287.79	-0.004
288.00	-0.004
288.21	-0.003
288.42	-0.003
288.63	-0.003
288.85	-0.002
289.06	-0.002
289.27	-0.002
289.48	-0.002
289.69	-0.002
289.90	-0.001
290.11	-0.001
290.33	-0.000
290.54	-0.000
290.75	0.000
290.96	0.000
291.17	0.001
291.38	0.001
291.59	0.001
291.81	0.001
292.02	0.001
292.23	0.001
292.44	0.002
292.65	0.002
292.86	0.002
293.07	0.002
293.28	0.002
293.50	0.002
293.71	0.002
293.92	0.002
294.13	0.003
294.34	0.003
294.55	0.003
294.76	0.003
294.97	0.003
295.19	0.003
295.40	0.003
295.61	0.004
295.82	0.003
296.03	0.003
296.24	0.003
296.45	0.003
296.66	0.003
296.87	0.003
297.09	0.003
297.30	0.003
297.51	0.004
297.72	0.004
297.93	0.004
298.14	0.004
298.35	0.004
298.56	0.004
298.77	0.004
298.99	0.004
299.20	0.004
299.41	0.004
299.62	0.004
299.83	0.004
300.04	0.004
300.25	0.004
300.46	0.004
300.67	0.004
300.88	0.004
301.10	0.004
301.31	0.004
301.52	0.004
301.73	0.004
301.94	0.004
302.15	0.004
302.36	0.004
302.57	0.004
302.78	0.004
302.99	0.004
303.20	0.004
303.41	0.004
303.63	0.004
303.84	0.004
304.05	0.004
304.26	0.004
304.47	0.004
304.68	0.004
304.89	0.004
305.10	0.004
305.31	0.004
305.52	0.004
305.73	0.004
305.94	0.004
306.15	0.004
306.37	0.004
306.58	0.005
306.79	0.005
307.00	0.005
307.21	0.005
307.42	0.005
307.63	0.005
307.84	0.005
308.05	0.005
308.26	0.005
308.47	0.005
308.68	0.005
308.89	0.005
309.10	0.005
309.31	0.005
309.52	0.005
309.73	0.005
309.95	0.005
310.16	0.005
310.37	0.005
310.58	0.005
310.79	0.005
311.00	0.005
311.21	0.005
311.42	0.005
311.63	0.005
311.84	0.005
312.05	0.005
312.26	0.005
312.47	0.005
312.68	0.005
312.89	0.005
313.10	0.005
313.31	0.006
313.52	0.006
313.73	0.006
313.94	0.006
314.15	0.006
314.36	0.006
314.57	0.006
314.78	0.006
314.99	0.006
315.21	0.006
315.42	0.006
315.63	0.006
315.84	0.006
316.05	0.006
316.26	0.006
316.47	0.006
316.68	0.006
316.89	0.006
317.10	0.006
317.31	0.006
317.52	0.006
317.73	0.006
317.94	0.006
318.15	0.006
318.36	0.006
318.57	0.006
318.78	0.006
318.99	0.006
319.20	0.006
319.41	0.006
319.62	0.006
319.83	0.006
320.04	0.006
320.25	0.006
320.46	0.006
320.67	0.006
320.88	0.006
321.09	0.006
321.30	0.006
321.51	0.006
321.72	0.006
321.93	0.006
322.14	0.006
322.35	0.006
322.56	0.006
322.77	0.006
322.98	0.006
323.19	0.006
323.40	0.006
323.61	0.006
323.82	0.006
324.03	0.006
324.24	0.006
324.45	0.006
324.66	0.006
324.87	0.006
325.08	0.006
325.29	0.006
325.50	0.006
325.71	0.006
325.92	0.006
326.13	0.006
326.34	0.006
326.55	0.006
326.76	0.006
326.97	0.006
327.18	0.006
327.39	0.006
327.60	0.006
327.80	0.006
328.01	0.006
328.22	0.006
328.43	0.006
328.64	0.006
328.85	0.006
329.06	0.006
329.27	0.006
329.48	0.006
329.69	0.006
329.90	0.006
330.11	0.006
330.32	0.007
330.53	0.006
330.74	0.006
330.95	0.006
331.16	0.006
331.37	0.006
331.58	0.006
331.79	0.006
332.00	0.006
332.21	0.006
332.42	0.006
332.63	0.006
332.83	0.006
333.04	0.006
333.25	0.006
333.46	0.006
333.67	0.006
333.88	0.006
334.09	0.006
334.30	0.006
334.51	0.006
334.72	0.006
334.93	0.006
335.14	0.006
335.35	0.006
335.56	0.006
335.77	0.006
335.98	0.006
336.18	0.006
336.39	0.006
336.60	0.006
336.81	0.006
337.02	0.006
337.23	0.006
337.44	0.006
337.65	0.006
337.86	0.006
338.07	0.006
338.28	0.005
338.49	0.005
338.70	0.005
338.91	0.005
339.11	0.005
339.32	0.005
339.53	0.005
339.74	0.005
339.95	0.005
340.16	0.005
340.37	0.005
340.58	0.005
340.79	0.005
341.00	0.005
341.21	0.005
341.41	0.005
341.62	0.005
341.83	0.004
342.04	0.004
342.25	0.004
342.46	0.004
342.67	0.004
342.88	0.004
343.09	0.004
343.30	0.004
343.50	0.004
343.71	0.004
343.92	0.004
344.13	0.004
344.34	0.004
344.55	0.004
344.76	0.004
344.97	0.004
345.18	0.004
345.38	0.004
345.59	0.004
345.80	0.004
346.01	0.004
346.22	0.004
346.43	0.004
346.64	0.004
346.85	0.004
347.06	0.004
347.26	0.003
347.47	0.003
347.68	0.003
347.89	0.003
348.10	0.003
348.31	0.003
348.52	0.003
348.73	0.003
348.93	0.003
349.14	0.003
349.35	0.003
349.56	0.003
349.77	0.003
349.98	0.003
350.19	0.003
350.39	0.003
350.60	0.003
350.81	0.003
351.02	0.003
351.23	0.003
351.44	0.003
351.65	0.003
351.86	0.003
352.06	0.003
352.27	0.003
352.48	0.003
352.69	0.003
352.90	0.003
353.11	0.003
353.31	0.003
353.52	0.003
353.73	0.003
353.94	0.003
354.15	0.003
354.36	0.003
354.57	0.003
354.77	0.003
354.98	0.003
355.19	0.003
355.40	0.003
355.61	0.003
355.82	0.003
356.02	0.003
356.23	0.003
356.44	0.003
356.65	0.003
356.86	0.003
357.07	0.003
357.27	0.003
357.48	0.003
357.69	0.003
357.90	0.003
358.11	0.003
358.32	0.003
358.52	0.002
358.73	0.003
358.94	0.002
359.15	0.002
359.36	0.002
359.56	0.002
359.77	0.002
359.98	0.002
360.19	0.002
360.40	0.002
360.61	0.002
360.81	0.002
361.02	0.002
361.23	0.002
361.44	0.002
361.65	0.002
361.85	0.002
362.06	0.002
362.27	0.002
362.48	0.002
362.69	0.002
362.89	0.002
363.10	0.002
363.31	0.002
363.52	0.002
363.73	0.002
363.93	0.002
364.14	0.002
364.35	0.002
364.56	0.002
364.77	0.002
364.97	0.002
365.18	0.002
365.39	0.002
365.60	0.002
365.81	0.002
366.01	0.002
366.22	0.002
366.43	0.002
366.64	0.002
366.84	0.002
367.05	0.002
367.26	0.002
367.47	0.002
367.68	0.002
367.88	0.002
368.09	0.002
368.30	0.002
368.51	0.002
368.71	0.002
368.92	0.002
369.13	0.002
369.34	0.002
369.55	0.002
369.75	0.002
369.96	0.002
370.17	0.002
370.38	0.002
370.58	0.001
370.79	0.002
371.00	0.001
371.21	0.002
371.41	0.002
371.62	0.001
371.83	0.001
372.04	0.001
372.24	0.002
372.45	0.001
372.66	0.001
372.87	0.002
373.07	0.001
373.28	0.002
373.49	0.002
373.70	0.002
373.90	0.002
374.11	0.001
374.32	0.002
374.53	0.001
374.73	0.002
374.94	0.002
375.15	0.001
375.36	0.001
375.56	0.001
375.77	0.001
375.98	0.001
376.19	0.001
376.39	0.001
376.60	0.001
376.81	0.001
377.02	0.001
377.22	0.001
377.43	0.001
377.64	0.001
377.84	0.001
378.05	0.001
378.26	0.001
378.47	0.001
378.67	0.001
378.88	0.001
379.09	0.001
379.30	0.001
379.50	0.001
379.71	0.001
379.92	0.001
380.12	0.001
380.33	0.001
380.54	0.001
380.75	0.001
380.95	0.001
381.16	0.001
381.37	0.001
381.57	0.001
381.78	0.001
381.99	0.001
382.20	0.001
382.40	0.001
382.61	0.001
382.82	0.001
383.02	0.001
383.23	0.001
383.44	0.001
383.64	0.001
383.85	0.001
384.06	0.001
384.27	0.001
384.47	0.001
384.68	0.001
384.89	0.001
385.09	0.001
385.30	0.001
385.51	0.001
385.71	0.000
385.92	0.000
386.13	0.000
386.33	0.000
386.54	0.000
386.75	0.000
386.95	0.000
387.16	0.000
387.37	0.000
387.58	0.001
387.78	0.001
387.99	0.001
388.20	0.001
388.40	0.001
388.61	0.001
388.82	0.001
389.02	0.001
389.23	0.001
389.44	0.001
389.64	0.001
389.85	0.001
390.06	0.001
390.26	0.001
390.47	0.001
390.68	0.001
390.88	0.001
391.09	0.001
391.30	0.001
391.50	0.001
391.71	0.001
391.92	0.001
392.12	0.000
392.33	0.001
392.53	0.001
392.74	0.001
392.95	0.001
393.15	0.001
393.36	0.001
393.57	0.001
393.77	0.001
393.98	0.001
394.19	0.001
394.39	0.001
394.60	0.001
394.81	0.001
395.01	0.001
395.22	0.001
395.43	0.001
395.63	0.001
395.84	0.001
396.04	0.001
396.25	0.001
396.46	0.001
396.66	0.001
396.87	0.001
397.08	0.001
397.28	0.001
397.49	0.001
397.69	0.001
397.90	0.001
398.11	0.001
398.31	0.000
398.52	0.000
398.73	0.000
398.93	0.000
399.14	0.000
399.34	0.000
399.55	0.000
399.76	-0.000
399.96	0.000
400.17	0.000
400.37	0.000
400.58	0.000
400.79	0.000
400.99	0.000
401.20	0.000
401.41	0.000
401.61	0.000
401.82	0.000
402.02	0.001
402.23	0.000
402.44	0.000
402.64	0.000
402.85	0.000
403.05	0.000
403.26	0.000
403.47	0.001
403.67	0.001
403.88	0.000
404.08	0.001
404.29	0.000
404.50	0.000
404.70	0.000
404.91	0.000
405.11	0.000
405.32	0.000
405.52	0.000
405.73	0.000
405.94	0.000
406.14	0.000
406.35	0.000
406.55	0.000
406.76	0.000
406.97	0.000
407.17	0.000
407.38	0.000
407.58	0.000
407.79	0.000
407.99	0.000
408.20	0.000
408.41	0.000
408.61	0.000
408.82	0.000
409.02	0.000
409.23	0.000
409.43	0.000
409.64	0.000
409.84	0.000
410.05	0.000
410.26	0.000
410.46	0.000
410.67	-0.000
410.87	0.000
411.08	0.000
411.28	-0.000
411.49	0.000
411.69	-0.000
411.90	-0.000
412.11	-0.000
412.31	-0.000
412.52	-0.000
412.72	-0.000
412.93	-0.000
413.13	-0.000
413.34	-0.000
413.54	0.000
413.75	0.000
413.95	0.000
414.16	0.000
414.37	0.000
414.57	0.000
414.78	0.000
414.98	0.000
415.19	0.000
415.39	0.000
415.60	0.000
415.80	0.000
416.01	0.000
416.21	0.000
416.42	0.000
416.62	0.000
416.83	0.000
417.03	0.000
417.24	0.000
417.44	0.000
417.65	0.000
417.86	-0.000
418.06	-0.000
418.27	-0.000
418.47	-0.000
418.68	-0.000
418.88	-0.000
419.09	-0.001
419.29	-0.001
419.50	-0.001
419.70	-0.001
419.91	-0.000
420.11	-0.000
420.32	-0.000
420.52	-0.000
420.73	-0.000
420.93	-0.000
421.14	-0.000
421.34	-0.000
421.55	-0.000
421.75	-0.000
421.96	-0.000
422.16	-0.000
422.37	-0.001
422.57	-0.001
422.78	-0.001
422.98	-0.001
423.19	-0.000
423.39	-0.000
423.60	-0.000
423.80	-0.000
424.01	-0.000
424.21	-0.000
424.42	-0.000
424.62	0.000
424.83	0.000
425.03	0.000
425.23	0.000
425.44	-0.000
425.64	0.000
425.85	-0.000
426.05	0.000
426.26	-0.000
426.46	-0.000
426.67	-0.000
426.87	-0.000
427.08	-0.000
427.28	-0.000
427.49	-0.000
427.69	-0.000
427.90	-0.000
428.10	-0.000
428.31	-0.000
428.51	-0.000
428.71	-0.000
428.92	-0.001
429.12	-0.001
429.33	-0.000
429.53	-0.000
429.74	-0.000
429.94	-0.001
430.15	-0.001
430.35	-0.000
430.56	-0.000
430.76	-0.000
430.96	-0.000
431.17	-0.000
431.37	-0.000
431.58	-0.000
431.78	-0.000
431.99	-0.000
432.19	-0.000
432.40	-0.000
432.60	-0.000
432.80	-0.000
433.01	-0.000
433.21	-0.000
433.42	-0.000
433.62	-0.000
433.83	-0.000
434.03	-0.000
434.23	-0.000
434.44	-0.000
434.64	-0.000
434.85	-0.000
435.05	-0.000
435.26	-0.000
435.46	-0.000
435.66	-0.000
435.87	-0.000
436.07	-0.000
436.28	-0.000
436.48	-0.000
436.69	-0.001
436.89	-0.001
437.09	-0.001
437.30	-0.001
437.50	-0.001
437.71	-0.001
437.91	-0.001
438.11	-0.001
438.32	-0.001
438.52	-0.000
438.73	-0.000
438.93	-0.000
439.13	-0.000
439.34	-0.000
439.54	-0.000
439.75	-0.000
439.95	-0.000
440.15	-0.000
440.36	-0.000
440.56	-0.000
440.77	-0.000
440.97	-0.000
441.17	-0.000
441.38	-0.000
441.58	-0.000
441.79	-0.000
441.99	-0.000
442.19	-0.000
442.40	-0.000
442.60	-0.000
442.81	-0.000
443.01	-0.000
443.21	-0.000
443.42	-0.000
443.62	-0.000
443.82	-0.000
444.03	-0.000
444.23	-0.000
444.44	-0.000
444.64	-0.000
444.84	-0.000
445.05	-0.000
445.25	-0.000
445.45	-0.000
445.66	-0.000
445.86	-0.000
446.06	-0.000
446.27	-0.000
446.47	-0.000
446.68	-0.001
446.88	-0.000
447.08	-0.000
447.29	-0.001
447.49	-0.000
447.69	-0.000
447.90	-0.000
448.10	-0.000
448.30	-0.000
448.51	-0.000
448.71	-0.001
448.91	-0.000
449.12	-0.001
449.32	-0.001
449.52	-0.000
449.73	-0.000
449.93	-0.000
450.14	-0.000
450.34	-0.000
450.54	-0.000
450.75	-0.000
450.95	-0.000
451.15	-0.000
451.36	-0.000
451.56	-0.000
451.76	-0.000
451.97	-0.001
452.17	-0.001
452.37	-0.001
452.58	-0.001
452.78	-0.001
452.98	-0.001
453.19	-0.001
453.39	-0.001
453.59	-0.001
453.79	-0.001
454.00	-0.001
454.20	-0.001
454.40	-0.001
454.61	-0.001
454.81	-0.001
455.01	-0.001
455.22	-0.001
455.42	-0.001
455.62	-0.001
455.83	-0.000
456.03	-0.000
456.23	-0.000
456.44	-0.000
456.64	-0.000
456.84	-0.000
457.04	-0.000
457.25	-0.000
457.45	-0.000
457.65	-0.000
457.86	-0.000
458.06	-0.000
458.26	-0.000
458.47	-0.000
458.67	-0.000
458.87	-0.000
459.07	-0.001
459.28	-0.001
459.48	-0.000
459.68	-0.000
