SpectraSuite Data File
++++++++++++++++++++++++++++++++++++
Date: Mon Jun 15 07:34:15 PDT 2015
User: introlabs
Dark Spectrum Present: Yes
Reference Spectrum Present: Yes
Number of Sampled Component Spectra: 1
Spectrometers: USB4H08886
Integration Time (usec): 44366 (USB4H08886)
Spectra Averaged: 20 (USB4H08886)
Boxcar Smoothing: 5 (USB4H08886)
Correct for Electrical Dark: Yes (USB4H08886)
Strobe/Lamp Enabled: No (USB4H08886)
Correct for Detector Non-linearity: Yes (USB4H08886)
Correct for Stray Light: Yes (USB4H08886)
Number of Pixels in Processed Spectrum: 3648
>>>>>Begin Processed Spectral Data<<<<<
178.14	-0.000
178.36	-0.000
178.57	-0.000
178.79	0.573
179.01	-0.698
179.22	-0.000
179.44	-0.000
179.65	-0.301
179.87	-0.014
180.08	0.052
180.30	0.169
180.52	0.156
180.73	-0.011
180.95	0.116
181.16	0.038
181.38	0.052
181.59	0.030
181.81	0.027
182.03	0.050
182.24	0.046
182.46	0.040
182.67	0.025
182.89	0.016
183.10	0.019
183.32	0.010
183.54	-0.002
183.75	-0.008
183.97	0.002
184.18	-0.001
184.40	-0.010
184.61	-0.006
184.83	-0.005
185.04	-0.011
185.26	-0.003
185.48	-0.004
185.69	0.002
185.91	0.008
186.12	0.011
186.34	0.017
186.55	0.012
186.77	0.016
186.98	0.012
187.20	0.014
187.42	0.023
187.63	0.020
187.85	0.023
188.06	0.022
188.28	0.023
188.49	0.027
188.71	0.013
188.92	0.014
189.14	0.005
189.36	0.011
189.57	0.015
189.79	0.008
190.00	0.008
190.22	0.006
190.43	0.002
190.65	-0.004
190.86	0.002
191.08	0.010
191.29	0.006
191.51	0.010
191.72	0.003
191.94	-0.002
192.16	0.005
192.37	0.007
192.59	0.007
192.80	0.003
193.02	0.013
193.23	0.009
193.45	-0.000
193.66	0.005
193.88	0.005
194.09	0.006
194.31	0.006
194.52	0.006
194.74	0.000
194.95	-0.001
195.17	0.003
195.38	-0.004
195.60	-0.012
195.81	-0.006
196.03	-0.005
196.25	0.004
196.46	0.002
196.68	-0.000
196.89	-0.004
197.11	0.003
197.32	-0.002
197.54	-0.009
197.75	0.009
197.97	0.008
198.18	-0.003
198.40	0.002
198.61	-0.006
198.83	-0.008
199.04	-0.000
199.26	-0.003
199.47	-0.008
199.69	0.006
199.90	0.019
200.12	0.008
200.33	0.012
200.55	0.016
200.76	0.001
200.98	-0.005
201.19	-0.003
201.41	-0.010
201.62	-0.007
201.84	-0.001
202.05	-0.003
202.27	-0.011
202.48	-0.013
202.70	-0.014
202.91	-0.003
203.13	0.002
203.34	-0.002
203.56	-0.001
203.77	0.004
203.99	-0.004
204.20	-0.008
204.42	-0.016
204.63	-0.014
204.85	-0.012
205.06	-0.009
205.28	-0.012
205.49	-0.005
205.71	0.007
205.92	0.003
206.14	0.007
206.35	0.020
206.56	0.027
206.78	0.028
206.99	0.033
207.21	0.034
207.42	0.036
207.64	0.034
207.85	0.032
208.07	0.030
208.28	0.035
208.50	0.033
208.71	0.029
208.93	0.024
209.14	0.032
209.36	0.025
209.57	0.034
209.79	0.030
210.00	0.029
210.22	0.027
210.43	0.028
210.64	0.024
210.86	0.017
211.07	0.015
211.29	0.018
211.50	0.012
211.72	0.010
211.93	-0.004
212.15	-0.004
212.36	-0.005
212.58	-0.004
212.79	-0.009
213.01	-0.009
213.22	0.000
213.43	-0.002
213.65	-0.004
213.86	-0.005
214.08	-0.001
214.29	0.004
214.51	0.002
214.72	0.005
214.94	0.001
215.15	0.005
215.36	0.003
215.58	-0.005
215.79	-0.009
216.01	-0.008
216.22	-0.002
216.44	-0.004
216.65	-0.007
216.87	0.000
217.08	-0.002
217.29	0.002
217.51	0.001
217.72	0.005
217.94	0.007
218.15	0.014
218.37	0.011
218.58	0.006
218.80	0.011
219.01	0.010
219.22	0.004
219.44	0.005
219.65	0.010
219.87	0.013
220.08	0.010
220.30	0.005
220.51	0.000
220.72	-0.006
220.94	-0.007
221.15	-0.015
221.37	-0.017
221.58	-0.014
221.79	-0.010
222.01	-0.021
222.22	-0.024
222.44	-0.020
222.65	-0.016
222.87	-0.017
223.08	-0.009
223.29	-0.010
223.51	-0.009
223.72	-0.006
223.94	-0.011
224.15	-0.016
224.36	-0.013
224.58	-0.014
224.79	-0.013
225.01	-0.013
225.22	-0.013
225.44	-0.015
225.65	-0.010
225.86	-0.006
226.08	-0.005
226.29	-0.006
226.51	0.000
226.72	0.003
226.93	0.004
227.15	-0.002
227.36	-0.002
227.58	-0.002
227.79	0.002
228.00	0.002
228.22	-0.002
228.43	-0.003
228.65	-0.001
228.86	-0.002
229.07	-0.004
229.29	-0.000
229.50	0.004
229.72	0.004
229.93	0.005
230.14	0.001
230.36	-0.001
230.57	-0.001
230.78	-0.002
231.00	-0.003
231.21	-0.007
231.43	-0.006
231.64	-0.008
231.85	-0.006
232.07	-0.009
232.28	-0.009
232.50	-0.011
232.71	-0.010
232.92	-0.009
233.14	-0.009
233.35	-0.008
233.56	-0.007
233.78	-0.010
233.99	-0.011
234.21	-0.012
234.42	-0.010
234.63	-0.011
234.85	-0.009
235.06	-0.010
235.27	-0.010
235.49	-0.009
235.70	-0.011
235.91	-0.012
236.13	-0.008
236.34	-0.011
236.56	-0.013
236.77	-0.012
236.98	-0.010
237.20	-0.012
237.41	-0.012
237.62	-0.012
237.84	-0.013
238.05	-0.011
238.26	-0.011
238.48	-0.013
238.69	-0.009
238.91	-0.009
239.12	-0.010
239.33	-0.011
239.55	-0.011
239.76	-0.010
239.97	-0.010
240.19	-0.009
240.40	-0.010
240.61	-0.010
240.83	-0.010
241.04	-0.011
241.25	-0.011
241.47	-0.010
241.68	-0.009
241.89	-0.009
242.11	-0.010
242.32	-0.010
242.53	-0.010
242.75	-0.009
242.96	-0.009
243.17	-0.008
243.39	-0.008
243.60	-0.008
243.81	-0.008
244.03	-0.009
244.24	-0.008
244.45	-0.008
244.67	-0.007
244.88	-0.006
245.09	-0.006
245.31	-0.005
245.52	-0.006
245.73	-0.005
245.95	-0.004
246.16	-0.005
246.37	-0.004
246.59	-0.004
246.80	-0.004
247.01	-0.004
247.23	-0.005
247.44	-0.005
247.65	-0.006
247.87	-0.005
248.08	-0.005
248.29	-0.005
248.51	-0.005
248.72	-0.005
248.93	-0.005
249.15	-0.004
249.36	-0.004
249.57	-0.004
249.78	-0.004
250.00	-0.005
250.21	-0.004
250.42	-0.005
250.64	-0.004
250.85	-0.004
251.06	-0.004
251.28	-0.004
251.49	-0.004
251.70	-0.004
251.92	-0.004
252.13	-0.003
252.34	-0.002
252.55	-0.002
252.77	-0.003
252.98	-0.002
253.19	-0.003
253.41	-0.002
253.62	-0.002
253.83	-0.002
254.05	-0.002
254.26	-0.002
254.47	-0.002
254.68	-0.003
254.90	-0.003
255.11	-0.003
255.32	-0.002
255.54	-0.002
255.75	-0.002
255.96	-0.002
256.17	-0.002
256.39	-0.002
256.60	-0.002
256.81	-0.002
257.03	-0.002
257.24	-0.002
257.45	-0.002
257.66	-0.002
257.88	-0.002
258.09	-0.002
258.30	-0.002
258.51	-0.002
258.73	-0.002
258.94	-0.002
259.15	-0.002
259.37	-0.003
259.58	-0.003
259.79	-0.002
260.00	-0.002
260.22	-0.002
260.43	-0.002
260.64	-0.003
260.85	-0.003
261.07	-0.003
261.28	-0.002
261.49	-0.003
261.71	-0.002
261.92	-0.002
262.13	-0.003
262.34	-0.003
262.56	-0.003
262.77	-0.002
262.98	-0.002
263.19	-0.002
263.41	-0.003
263.62	-0.003
263.83	-0.003
264.04	-0.003
264.26	-0.003
264.47	-0.003
264.68	-0.003
264.89	-0.003
265.11	-0.003
265.32	-0.003
265.53	-0.002
265.74	-0.002
265.96	-0.002
266.17	-0.002
266.38	-0.002
266.59	-0.002
266.81	-0.002
267.02	-0.002
267.23	-0.002
267.44	-0.003
267.65	-0.003
267.87	-0.003
268.08	-0.003
268.29	-0.003
268.50	-0.004
268.72	-0.003
268.93	-0.003
269.14	-0.003
269.35	-0.004
269.57	-0.003
269.78	-0.003
269.99	-0.003
270.20	-0.003
270.41	-0.003
270.63	-0.003
270.84	-0.004
271.05	-0.004
271.26	-0.004
271.48	-0.004
271.69	-0.004
271.90	-0.005
272.11	-0.005
272.32	-0.005
272.54	-0.005
272.75	-0.005
272.96	-0.005
273.17	-0.005
273.39	-0.005
273.60	-0.005
273.81	-0.005
274.02	-0.005
274.23	-0.005
274.45	-0.005
274.66	-0.005
274.87	-0.005
275.08	-0.005
275.29	-0.005
275.51	-0.005
275.72	-0.006
275.93	-0.006
276.14	-0.005
276.35	-0.005
276.57	-0.005
276.78	-0.005
276.99	-0.006
277.20	-0.005
277.41	-0.006
277.63	-0.006
277.84	-0.005
278.05	-0.005
278.26	-0.005
278.47	-0.006
278.69	-0.006
278.90	-0.005
279.11	-0.005
279.32	-0.005
279.53	-0.005
279.74	-0.005
279.96	-0.005
280.17	-0.005
280.38	-0.005
280.59	-0.005
280.80	-0.005
281.02	-0.005
281.23	-0.005
281.44	-0.005
281.65	-0.005
281.86	-0.005
282.07	-0.005
282.29	-0.005
282.50	-0.005
282.71	-0.005
282.92	-0.005
283.13	-0.005
283.35	-0.004
283.56	-0.004
283.77	-0.004
283.98	-0.004
284.19	-0.004
284.40	-0.004
284.62	-0.004
284.83	-0.004
285.04	-0.003
285.25	-0.003
285.46	-0.003
285.67	-0.003
285.88	-0.003
286.10	-0.003
286.31	-0.003
286.52	-0.002
286.73	-0.002
286.94	-0.002
287.15	-0.002
287.37	-0.002
287.58	-0.002
287.79	-0.001
288.00	-0.001
288.21	-0.001
288.42	-0.001
288.63	-0.001
288.85	-0.001
289.06	-0.000
289.27	-0.000
289.48	-0.000
289.69	-0.000
289.90	-0.000
290.11	0.000
290.33	0.000
290.54	0.000
290.75	0.000
290.96	0.001
291.17	0.001
291.38	0.001
291.59	0.001
291.81	0.001
292.02	0.001
292.23	0.001
292.44	0.001
292.65	0.001
292.86	0.002
293.07	0.002
293.28	0.001
293.50	0.002
293.71	0.002
293.92	0.002
294.13	0.002
294.34	0.002
294.55	0.002
294.76	0.002
294.97	0.002
295.19	0.002
295.40	0.002
295.61	0.002
295.82	0.002
296.03	0.002
296.24	0.002
296.45	0.002
296.66	0.002
296.87	0.002
297.09	0.002
297.30	0.002
297.51	0.002
297.72	0.002
297.93	0.002
298.14	0.002
298.35	0.002
298.56	0.001
298.77	0.001
298.99	0.002
299.20	0.002
299.41	0.002
299.62	0.002
299.83	0.002
300.04	0.002
300.25	0.002
300.46	0.002
300.67	0.002
300.88	0.002
301.10	0.002
301.31	0.002
301.52	0.002
301.73	0.002
301.94	0.002
302.15	0.002
302.36	0.002
302.57	0.002
302.78	0.002
302.99	0.002
303.20	0.001
303.41	0.002
303.63	0.002
303.84	0.002
304.05	0.002
304.26	0.002
304.47	0.002
304.68	0.002
304.89	0.002
305.10	0.002
305.31	0.002
305.52	0.002
305.73	0.002
305.94	0.002
306.15	0.002
306.37	0.002
306.58	0.002
306.79	0.002
307.00	0.002
307.21	0.002
307.42	0.002
307.63	0.002
307.84	0.002
308.05	0.002
308.26	0.002
308.47	0.002
308.68	0.002
308.89	0.002
309.10	0.002
309.31	0.002
309.52	0.002
309.73	0.002
309.95	0.002
310.16	0.002
310.37	0.001
310.58	0.002
310.79	0.001
311.00	0.001
311.21	0.001
311.42	0.002
311.63	0.002
311.84	0.002
312.05	0.002
312.26	0.002
312.47	0.002
312.68	0.002
312.89	0.002
313.10	0.002
313.31	0.002
313.52	0.002
313.73	0.002
313.94	0.002
314.15	0.002
314.36	0.002
314.57	0.002
314.78	0.002
314.99	0.002
315.21	0.002
315.42	0.002
315.63	0.002
315.84	0.002
316.05	0.002
316.26	0.002
316.47	0.002
316.68	0.002
316.89	0.002
317.10	0.002
317.31	0.002
317.52	0.002
317.73	0.002
317.94	0.002
318.15	0.002
318.36	0.002
318.57	0.002
318.78	0.002
318.99	0.002
319.20	0.002
319.41	0.002
319.62	0.002
319.83	0.002
320.04	0.002
320.25	0.002
320.46	0.002
320.67	0.002
320.88	0.002
321.09	0.002
321.30	0.002
321.51	0.002
321.72	0.002
321.93	0.002
322.14	0.002
322.35	0.002
322.56	0.002
322.77	0.002
322.98	0.002
323.19	0.002
323.40	0.002
323.61	0.002
323.82	0.002
324.03	0.002
324.24	0.002
324.45	0.002
324.66	0.002
324.87	0.002
325.08	0.002
325.29	0.002
325.50	0.002
325.71	0.002
325.92	0.002
326.13	0.002
326.34	0.002
326.55	0.002
326.76	0.002
326.97	0.002
327.18	0.002
327.39	0.002
327.60	0.002
327.80	0.002
328.01	0.002
328.22	0.002
328.43	0.002
328.64	0.002
328.85	0.002
329.06	0.002
329.27	0.002
329.48	0.002
329.69	0.002
329.90	0.002
330.11	0.002
330.32	0.002
330.53	0.002
330.74	0.002
330.95	0.002
331.16	0.002
331.37	0.002
331.58	0.002
331.79	0.002
332.00	0.002
332.21	0.002
332.42	0.002
332.63	0.002
332.83	0.002
333.04	0.002
333.25	0.002
333.46	0.002
333.67	0.002
333.88	0.002
334.09	0.002
334.30	0.002
334.51	0.002
334.72	0.002
334.93	0.002
335.14	0.002
335.35	0.002
335.56	0.002
335.77	0.002
335.98	0.002
336.18	0.001
336.39	0.002
336.60	0.002
336.81	0.002
337.02	0.001
337.23	0.002
337.44	0.002
337.65	0.002
337.86	0.002
338.07	0.002
338.28	0.002
338.49	0.002
338.70	0.002
338.91	0.002
339.11	0.002
339.32	0.002
339.53	0.002
339.74	0.002
339.95	0.001
340.16	0.002
340.37	0.001
340.58	0.001
340.79	0.001
341.00	0.001
341.21	0.001
341.41	0.001
341.62	0.001
341.83	0.001
342.04	0.001
342.25	0.001
342.46	0.001
342.67	0.001
342.88	0.001
343.09	0.001
343.30	0.001
343.50	0.001
343.71	0.001
343.92	0.001
344.13	0.001
344.34	0.001
344.55	0.001
344.76	0.001
344.97	0.001
345.18	0.001
345.38	0.001
345.59	0.001
345.80	0.001
346.01	0.001
346.22	0.001
346.43	0.001
346.64	0.001
346.85	0.001
347.06	0.001
347.26	0.001
347.47	0.001
347.68	0.001
347.89	0.001
348.10	0.001
348.31	0.001
348.52	0.001
348.73	0.001
348.93	0.001
349.14	0.000
349.35	0.000
349.56	0.000
349.77	0.000
349.98	0.001
350.19	0.001
350.39	0.000
350.60	0.001
350.81	0.001
351.02	0.000
351.23	0.000
351.44	0.000
351.65	0.000
351.86	0.000
352.06	0.000
352.27	0.000
352.48	0.000
352.69	0.000
352.90	0.000
353.11	0.000
353.31	0.001
353.52	0.001
353.73	0.001
353.94	0.000
354.15	0.000
354.36	0.000
354.57	0.000
354.77	0.000
354.98	0.000
355.19	0.000
355.40	0.000
355.61	0.000
355.82	0.000
356.02	0.000
356.23	0.000
356.44	0.001
356.65	0.001
356.86	0.001
357.07	0.000
357.27	0.001
357.48	0.001
357.69	0.001
357.90	0.001
358.11	0.000
358.32	0.000
358.52	0.000
358.73	0.000
358.94	0.000
359.15	0.000
359.36	0.000
359.56	0.000
359.77	0.000
359.98	0.000
360.19	0.000
360.40	0.000
360.61	0.000
360.81	0.000
361.02	0.000
361.23	0.000
361.44	0.000
361.65	0.000
361.85	0.000
362.06	0.000
362.27	0.000
362.48	0.000
362.69	0.000
362.89	0.000
363.10	0.000
363.31	0.000
363.52	0.000
363.73	0.001
363.93	0.001
364.14	0.001
364.35	0.000
364.56	0.000
364.77	0.000
364.97	0.000
365.18	0.001
365.39	0.001
365.60	0.000
365.81	0.000
366.01	0.000
366.22	0.000
366.43	0.000
366.64	0.000
366.84	0.000
367.05	0.000
367.26	0.000
367.47	0.000
367.68	0.000
367.88	0.000
368.09	0.000
368.30	0.001
368.51	0.000
368.71	0.000
368.92	0.000
369.13	0.000
369.34	0.000
369.55	0.000
369.75	0.001
369.96	0.001
370.17	0.001
370.38	0.000
370.58	0.000
370.79	0.000
371.00	0.000
371.21	0.000
371.41	0.000
371.62	0.000
371.83	0.000
372.04	0.000
372.24	0.000
372.45	0.000
372.66	0.000
372.87	0.000
373.07	0.000
373.28	0.000
373.49	0.000
373.70	0.000
373.90	0.000
374.11	0.000
374.32	0.000
374.53	0.000
374.73	0.000
374.94	-0.000
375.15	0.000
375.36	0.000
375.56	0.000
375.77	0.000
375.98	0.000
376.19	0.000
376.39	0.000
376.60	0.000
376.81	0.000
377.02	0.000
377.22	0.000
377.43	0.000
377.64	-0.000
377.84	-0.000
378.05	-0.000
378.26	-0.000
378.47	-0.000
378.67	-0.000
378.88	-0.000
379.09	-0.000
379.30	-0.000
379.50	-0.000
379.71	-0.000
379.92	-0.000
380.12	-0.000
380.33	-0.000
380.54	-0.000
380.75	-0.000
380.95	-0.000
381.16	-0.000
381.37	-0.000
381.57	-0.000
381.78	-0.000
381.99	-0.000
382.20	-0.000
382.40	-0.000
382.61	-0.000
382.82	-0.000
383.02	-0.000
383.23	-0.000
383.44	-0.000
383.64	-0.000
383.85	-0.000
384.06	-0.000
384.27	-0.000
384.47	-0.000
384.68	-0.000
384.89	-0.000
385.09	-0.000
385.30	-0.000
385.51	-0.000
385.71	-0.000
385.92	-0.000
386.13	-0.000
386.33	-0.000
386.54	-0.000
386.75	-0.000
386.95	-0.000
387.16	-0.000
387.37	-0.000
387.58	0.000
387.78	0.000
387.99	0.000
388.20	0.000
388.40	0.000
388.61	0.000
388.82	0.000
389.02	0.000
389.23	0.000
389.44	0.000
389.64	0.000
389.85	0.000
390.06	0.000
390.26	0.000
390.47	-0.000
390.68	-0.000
390.88	-0.000
391.09	-0.000
391.30	-0.000
391.50	-0.000
391.71	-0.000
391.92	-0.000
392.12	-0.000
392.33	-0.000
392.53	-0.000
392.74	0.000
392.95	0.000
393.15	0.000
393.36	0.000
393.57	0.000
393.77	-0.000
393.98	-0.000
394.19	0.000
394.39	0.000
394.60	0.000
394.81	0.000
395.01	0.000
395.22	-0.000
395.43	-0.000
395.63	-0.000
395.84	-0.000
396.04	0.000
396.25	-0.000
396.46	-0.000
396.66	-0.000
396.87	-0.000
397.08	-0.000
397.28	-0.000
397.49	0.000
397.69	-0.000
397.90	-0.000
398.11	0.000
398.31	-0.000
398.52	-0.000
398.73	-0.000
398.93	-0.000
399.14	-0.000
399.34	-0.000
399.55	-0.000
399.76	-0.000
399.96	-0.000
400.17	-0.000
400.37	-0.000
400.58	-0.000
400.79	-0.000
400.99	-0.000
401.20	-0.000
401.41	-0.000
401.61	-0.000
401.82	-0.000
402.02	-0.000
402.23	-0.000
402.44	-0.000
402.64	-0.000
402.85	-0.000
403.05	-0.000
403.26	-0.000
403.47	-0.000
403.67	-0.000
403.88	-0.000
404.08	-0.000
404.29	-0.000
404.50	-0.000
404.70	-0.000
404.91	-0.000
405.11	-0.000
405.32	-0.000
405.52	-0.000
405.73	-0.001
405.94	-0.001
406.14	-0.001
406.35	-0.001
406.55	-0.001
406.76	-0.001
406.97	-0.001
407.17	-0.001
407.38	-0.000
407.58	-0.000
407.79	-0.001
407.99	-0.000
408.20	-0.000
408.41	-0.000
408.61	-0.000
408.82	-0.000
409.02	-0.000
409.23	-0.000
409.43	-0.000
409.64	-0.000
409.84	-0.000
410.05	-0.000
410.26	-0.000
410.46	-0.000
410.67	-0.000
410.87	-0.000
411.08	-0.000
411.28	-0.000
411.49	-0.000
411.69	-0.000
411.90	-0.000
412.11	-0.000
412.31	-0.000
412.52	-0.000
412.72	-0.000
412.93	-0.000
413.13	-0.000
413.34	-0.000
413.54	-0.000
413.75	-0.000
413.95	-0.000
414.16	-0.000
414.37	-0.000
414.57	-0.000
414.78	-0.000
414.98	-0.000
415.19	-0.000
415.39	-0.000
415.60	-0.000
415.80	-0.000
416.01	-0.000
416.21	-0.000
416.42	-0.000
416.62	-0.000
416.83	-0.001
417.03	-0.001
417.24	-0.001
417.44	-0.001
417.65	-0.001
417.86	-0.001
418.06	-0.001
418.27	-0.001
418.47	-0.001
418.68	-0.001
418.88	-0.001
419.09	-0.001
419.29	-0.001
419.50	-0.001
419.70	-0.001
419.91	-0.000
420.11	-0.000
420.32	-0.000
420.52	-0.000
420.73	-0.000
420.93	-0.000
421.14	-0.000
421.34	-0.000
421.55	-0.001
421.75	-0.000
421.96	-0.001
422.16	-0.001
422.37	-0.000
422.57	-0.000
422.78	-0.000
422.98	-0.000
423.19	-0.000
423.39	-0.000
423.60	-0.000
423.80	-0.000
424.01	-0.000
424.21	-0.000
424.42	-0.000
424.62	-0.000
424.83	-0.000
425.03	-0.000
425.23	-0.000
425.44	-0.000
425.64	-0.000
425.85	-0.000
426.05	-0.000
426.26	-0.000
426.46	-0.000
426.67	-0.000
426.87	-0.000
427.08	-0.000
427.28	-0.000
427.49	-0.000
427.69	-0.000
427.90	-0.000
428.10	-0.000
428.31	-0.000
428.51	-0.000
428.71	-0.000
428.92	-0.000
429.12	-0.000
429.33	-0.000
429.53	-0.000
429.74	-0.000
429.94	-0.000
430.15	-0.000
430.35	-0.000
430.56	-0.000
430.76	-0.000
430.96	-0.000
431.17	-0.000
431.37	-0.000
431.58	-0.000
431.78	-0.001
431.99	-0.000
432.19	-0.000
432.40	-0.000
432.60	-0.000
432.80	-0.001
433.01	-0.001
433.21	-0.001
433.42	-0.001
433.62	-0.000
433.83	-0.000
434.03	-0.000
434.23	-0.000
434.44	-0.000
434.64	-0.000
434.85	-0.000
435.05	-0.000
435.26	-0.000
435.46	-0.001
435.66	-0.000
435.87	-0.001
436.07	-0.001
436.28	-0.001
436.48	-0.001
436.69	-0.001
436.89	-0.001
437.09	-0.001
437.30	-0.001
437.50	-0.001
437.71	-0.001
437.91	-0.001
438.11	-0.001
438.32	-0.001
438.52	-0.001
438.73	-0.001
438.93	-0.001
439.13	-0.001
439.34	-0.001
439.54	-0.001
439.75	-0.001
439.95	-0.001
440.15	-0.001
440.36	-0.001
440.56	-0.001
440.77	-0.001
440.97	-0.001
441.17	-0.000
441.38	-0.001
441.58	-0.001
441.79	-0.001
441.99	-0.001
442.19	-0.000
442.40	-0.000
442.60	-0.001
442.81	-0.000
443.01	-0.001
443.21	-0.001
443.42	-0.001
443.62	-0.000
443.82	-0.000
444.03	-0.000
444.23	-0.000
444.44	-0.000
444.64	-0.000
444.84	-0.000
445.05	-0.000
445.25	-0.000
445.45	-0.000
445.66	-0.000
445.86	-0.000
446.06	-0.000
446.27	-0.000
446.47	-0.000
446.68	-0.000
446.88	-0.000
447.08	-0.000
447.29	-0.000
447.49	-0.000
447.69	-0.000
447.90	-0.000
448.10	-0.000
448.30	-0.000
448.51	-0.000
448.71	-0.000
448.91	-0.000
449.12	-0.000
449.32	-0.001
449.52	-0.000
449.73	-0.000
449.93	-0.000
450.14	-0.000
450.34	-0.000
450.54	-0.000
450.75	-0.000
450.95	-0.000
451.15	-0.000
451.36	-0.000
451.56	-0.000
451.76	-0.001
451.97	-0.001
452.17	-0.001
452.37	-0.001
452.58	-0.001
452.78	-0.001
452.98	-0.001
453.19	-0.001
453.39	-0.001
453.59	-0.001
453.79	-0.001
454.00	-0.001
454.20	-0.000
454.40	-0.001
454.61	-0.000
454.81	-0.001
455.01	-0.001
455.22	-0.001
455.42	-0.001
455.62	-0.001
455.83	-0.001
456.03	-0.001
456.23	-0.001
456.44	-0.000
456.64	-0.000
456.84	-0.000
457.04	-0.000
