SpectraSuite Data File
++++++++++++++++++++++++++++++++++++
Date: Mon Jun 15 09:10:02 PDT 2015
User: introlabs
Dark Spectrum Present: Yes
Reference Spectrum Present: Yes
Number of Sampled Component Spectra: 1
Spectrometers: USB4H08886
Integration Time (usec): 44366 (USB4H08886)
Spectra Averaged: 20 (USB4H08886)
Boxcar Smoothing: 5 (USB4H08886)
Correct for Electrical Dark: Yes (USB4H08886)
Strobe/Lamp Enabled: No (USB4H08886)
Correct for Detector Non-linearity: Yes (USB4H08886)
Correct for Stray Light: Yes (USB4H08886)
Number of Pixels in Processed Spectrum: 3648
>>>>>Begin Processed Spectral Data<<<<<
178.14	-0.000
178.36	-0.000
178.57	-0.000
178.79	-0.000
179.01	-0.995
179.22	1.078
179.44	0.446
179.65	-0.145
179.87	0.226
180.08	0.286
180.30	0.159
180.52	-0.036
180.73	0.007
180.95	0.050
181.16	0.001
181.38	-0.023
181.59	-0.018
181.81	-0.030
182.03	0.009
182.24	0.004
182.46	0.003
182.67	0.011
182.89	0.017
183.10	0.016
183.32	0.015
183.54	0.009
183.75	0.016
183.97	0.019
184.18	0.027
184.40	0.012
184.61	0.028
184.83	0.028
185.04	0.017
185.26	0.016
185.48	0.016
185.69	0.016
185.91	0.019
186.12	0.024
186.34	0.021
186.55	0.010
186.77	0.014
186.98	0.004
187.20	0.004
187.42	0.018
187.63	0.016
187.85	0.019
188.06	0.023
188.28	0.026
188.49	0.028
188.71	0.030
188.92	0.034
189.14	0.023
189.36	0.021
189.57	0.019
189.79	0.001
190.00	-0.000
190.22	-0.000
190.43	-0.004
190.65	-0.010
190.86	-0.010
191.08	-0.010
191.29	-0.013
191.51	-0.004
191.72	-0.009
191.94	-0.004
192.16	0.006
192.37	0.006
192.59	0.006
192.80	0.004
193.02	0.007
193.23	0.003
193.45	0.002
193.66	0.005
193.88	0.003
194.09	0.008
194.31	0.001
194.52	-0.006
194.74	-0.005
194.95	-0.010
195.17	-0.013
195.38	-0.021
195.60	-0.028
195.81	-0.028
196.03	-0.029
196.25	-0.024
196.46	-0.024
196.68	-0.024
196.89	-0.013
197.11	-0.012
197.32	-0.009
197.54	-0.011
197.75	0.008
197.97	0.014
198.18	0.009
198.40	0.014
198.61	0.007
198.83	0.000
199.04	-0.000
199.26	-0.002
199.47	-0.015
199.69	-0.008
199.90	0.006
200.12	0.000
200.33	-0.003
200.55	0.005
200.76	-0.001
200.98	-0.007
201.19	-0.005
201.41	-0.004
201.62	-0.001
201.84	0.010
202.05	0.004
202.27	-0.002
202.48	-0.002
202.70	0.004
202.91	0.005
203.13	0.000
203.34	0.005
203.56	0.009
203.77	0.007
203.99	0.001
204.20	-0.002
204.42	-0.008
204.63	-0.007
204.85	-0.013
205.06	-0.020
205.28	-0.021
205.49	-0.012
205.71	-0.002
205.92	0.002
206.14	-0.001
206.35	0.003
206.56	0.009
206.78	0.011
206.99	0.010
207.21	0.020
207.42	0.026
207.64	0.023
207.85	0.024
208.07	0.025
208.28	0.022
208.50	0.029
208.71	0.030
208.93	0.031
209.14	0.037
209.36	0.039
209.57	0.036
209.79	0.042
210.00	0.042
210.22	0.039
210.43	0.029
210.64	0.029
210.86	0.021
211.07	0.017
211.29	0.015
211.50	0.014
211.72	0.005
211.93	0.004
212.15	-0.002
212.36	-0.008
212.58	-0.009
212.79	-0.003
213.01	-0.011
213.22	-0.010
213.43	-0.011
213.65	-0.012
213.86	-0.016
214.08	-0.007
214.29	-0.006
214.51	-0.009
214.72	-0.004
214.94	-0.007
215.15	-0.006
215.36	-0.004
215.58	-0.003
215.79	-0.000
216.01	0.003
216.22	0.006
216.44	0.005
216.65	0.003
216.87	0.007
217.08	0.002
217.29	0.006
217.51	0.005
217.72	0.007
217.94	0.013
218.15	0.012
218.37	0.007
218.58	0.003
218.80	0.007
219.01	0.001
219.22	-0.004
219.44	0.002
219.65	-0.001
219.87	0.002
220.08	-0.003
220.30	-0.006
220.51	-0.006
220.72	-0.005
220.94	-0.008
221.15	-0.014
221.37	-0.013
221.58	-0.006
221.79	-0.004
222.01	-0.009
222.22	-0.015
222.44	-0.007
222.65	-0.008
222.87	-0.012
223.08	-0.015
223.29	-0.013
223.51	-0.014
223.72	-0.011
223.94	-0.018
224.15	-0.020
224.36	-0.015
224.58	-0.017
224.79	-0.018
225.01	-0.021
225.22	-0.018
225.44	-0.017
225.65	-0.014
225.86	-0.011
226.08	-0.012
226.29	-0.011
226.51	-0.008
226.72	-0.010
226.93	-0.008
227.15	-0.017
227.36	-0.018
227.58	-0.020
227.79	-0.015
228.00	-0.017
228.22	-0.022
228.43	-0.025
228.65	-0.025
228.86	-0.028
229.07	-0.028
229.29	-0.028
229.50	-0.026
229.72	-0.025
229.93	-0.028
230.14	-0.031
230.36	-0.032
230.57	-0.032
230.78	-0.033
231.00	-0.036
231.21	-0.041
231.43	-0.045
231.64	-0.046
231.85	-0.045
232.07	-0.043
232.28	-0.045
232.50	-0.048
232.71	-0.050
232.92	-0.051
233.14	-0.051
233.35	-0.050
233.56	-0.049
233.78	-0.047
233.99	-0.049
234.21	-0.049
234.42	-0.051
234.63	-0.049
234.85	-0.049
235.06	-0.049
235.27	-0.048
235.49	-0.048
235.70	-0.049
235.91	-0.050
236.13	-0.050
236.34	-0.051
236.56	-0.052
236.77	-0.053
236.98	-0.052
237.20	-0.051
237.41	-0.050
237.62	-0.049
237.84	-0.050
238.05	-0.048
238.26	-0.048
238.48	-0.047
238.69	-0.044
238.91	-0.044
239.12	-0.044
239.33	-0.043
239.55	-0.042
239.76	-0.042
239.97	-0.041
240.19	-0.039
240.40	-0.040
240.61	-0.040
240.83	-0.040
241.04	-0.040
241.25	-0.039
241.47	-0.037
241.68	-0.036
241.89	-0.036
242.11	-0.036
242.32	-0.035
242.53	-0.035
242.75	-0.033
242.96	-0.032
243.17	-0.031
243.39	-0.031
243.60	-0.031
243.81	-0.030
244.03	-0.030
244.24	-0.030
244.45	-0.029
244.67	-0.029
244.88	-0.028
245.09	-0.027
245.31	-0.026
245.52	-0.026
245.73	-0.025
245.95	-0.024
246.16	-0.024
246.37	-0.024
246.59	-0.023
246.80	-0.023
247.01	-0.023
247.23	-0.024
247.44	-0.024
247.65	-0.024
247.87	-0.024
248.08	-0.024
248.29	-0.024
248.51	-0.024
248.72	-0.023
248.93	-0.023
249.15	-0.022
249.36	-0.021
249.57	-0.021
249.78	-0.020
250.00	-0.020
250.21	-0.019
250.42	-0.019
250.64	-0.018
250.85	-0.017
251.06	-0.017
251.28	-0.017
251.49	-0.017
251.70	-0.017
251.92	-0.016
252.13	-0.016
252.34	-0.015
252.55	-0.016
252.77	-0.016
252.98	-0.015
253.19	-0.016
253.41	-0.015
253.62	-0.015
253.83	-0.015
254.05	-0.014
254.26	-0.015
254.47	-0.015
254.68	-0.015
254.90	-0.015
255.11	-0.014
255.32	-0.014
255.54	-0.014
255.75	-0.014
255.96	-0.014
256.17	-0.014
256.39	-0.014
256.60	-0.014
256.81	-0.013
257.03	-0.013
257.24	-0.014
257.45	-0.014
257.66	-0.014
257.88	-0.014
258.09	-0.014
258.30	-0.014
258.51	-0.014
258.73	-0.014
258.94	-0.014
259.15	-0.014
259.37	-0.014
259.58	-0.014
259.79	-0.014
260.00	-0.014
260.22	-0.014
260.43	-0.014
260.64	-0.014
260.85	-0.014
261.07	-0.014
261.28	-0.014
261.49	-0.014
261.71	-0.014
261.92	-0.014
262.13	-0.014
262.34	-0.014
262.56	-0.014
262.77	-0.014
262.98	-0.014
263.19	-0.014
263.41	-0.014
263.62	-0.014
263.83	-0.015
264.04	-0.015
264.26	-0.015
264.47	-0.015
264.68	-0.015
264.89	-0.015
265.11	-0.016
265.32	-0.016
265.53	-0.016
265.74	-0.016
265.96	-0.017
266.17	-0.016
266.38	-0.017
266.59	-0.017
266.81	-0.017
267.02	-0.017
267.23	-0.018
267.44	-0.018
267.65	-0.019
267.87	-0.019
268.08	-0.019
268.29	-0.019
268.50	-0.019
268.72	-0.019
268.93	-0.019
269.14	-0.019
269.35	-0.020
269.57	-0.019
269.78	-0.019
269.99	-0.020
270.20	-0.020
270.41	-0.020
270.63	-0.020
270.84	-0.021
271.05	-0.021
271.26	-0.022
271.48	-0.022
271.69	-0.022
271.90	-0.022
272.11	-0.022
272.32	-0.023
272.54	-0.023
272.75	-0.023
272.96	-0.023
273.17	-0.023
273.39	-0.023
273.60	-0.023
273.81	-0.023
274.02	-0.023
274.23	-0.023
274.45	-0.023
274.66	-0.023
274.87	-0.023
275.08	-0.023
275.29	-0.024
275.51	-0.023
275.72	-0.024
275.93	-0.024
276.14	-0.024
276.35	-0.024
276.57	-0.024
276.78	-0.024
276.99	-0.024
277.20	-0.024
277.41	-0.024
277.63	-0.024
277.84	-0.023
278.05	-0.023
278.26	-0.023
278.47	-0.023
278.69	-0.023
278.90	-0.022
279.11	-0.022
279.32	-0.022
279.53	-0.022
279.74	-0.021
279.96	-0.021
280.17	-0.021
280.38	-0.021
280.59	-0.021
280.80	-0.020
281.02	-0.020
281.23	-0.020
281.44	-0.020
281.65	-0.020
281.86	-0.020
282.07	-0.019
282.29	-0.019
282.50	-0.019
282.71	-0.019
282.92	-0.019
283.13	-0.018
283.35	-0.018
283.56	-0.018
283.77	-0.018
283.98	-0.017
284.19	-0.017
284.40	-0.017
284.62	-0.017
284.83	-0.016
285.04	-0.016
285.25	-0.015
285.46	-0.015
285.67	-0.015
285.88	-0.014
286.10	-0.013
286.31	-0.013
286.52	-0.012
286.73	-0.011
286.94	-0.011
287.15	-0.010
287.37	-0.009
287.58	-0.009
287.79	-0.008
288.00	-0.007
288.21	-0.007
288.42	-0.006
288.63	-0.006
288.85	-0.005
289.06	-0.005
289.27	-0.004
289.48	-0.004
289.69	-0.004
289.90	-0.003
290.11	-0.003
290.33	-0.002
290.54	-0.002
290.75	-0.002
290.96	-0.001
291.17	-0.001
291.38	-0.000
291.59	-0.000
291.81	-0.000
292.02	0.000
292.23	0.001
292.44	0.001
292.65	0.001
292.86	0.001
293.07	0.001
293.28	0.002
293.50	0.002
293.71	0.002
293.92	0.002
294.13	0.003
294.34	0.003
294.55	0.003
294.76	0.003
294.97	0.003
295.19	0.004
295.40	0.004
295.61	0.004
295.82	0.004
296.03	0.004
296.24	0.004
296.45	0.004
296.66	0.004
296.87	0.004
297.09	0.004
297.30	0.004
297.51	0.004
297.72	0.004
297.93	0.004
298.14	0.005
298.35	0.005
298.56	0.005
298.77	0.005
298.99	0.005
299.20	0.005
299.41	0.005
299.62	0.005
299.83	0.005
300.04	0.006
300.25	0.006
300.46	0.006
300.67	0.006
300.88	0.006
301.10	0.006
301.31	0.006
301.52	0.006
301.73	0.006
301.94	0.006
302.15	0.006
302.36	0.006
302.57	0.006
302.78	0.006
302.99	0.006
303.20	0.006
303.41	0.006
303.63	0.006
303.84	0.006
304.05	0.006
304.26	0.006
304.47	0.006
304.68	0.006
304.89	0.006
305.10	0.006
305.31	0.006
305.52	0.006
305.73	0.007
305.94	0.007
306.15	0.007
306.37	0.007
306.58	0.007
306.79	0.007
307.00	0.007
307.21	0.007
307.42	0.007
307.63	0.007
307.84	0.007
308.05	0.007
308.26	0.007
308.47	0.007
308.68	0.007
308.89	0.007
309.10	0.007
309.31	0.007
309.52	0.008
309.73	0.008
309.95	0.008
310.16	0.008
310.37	0.008
310.58	0.008
310.79	0.008
311.00	0.008
311.21	0.008
311.42	0.008
311.63	0.008
311.84	0.008
312.05	0.008
312.26	0.008
312.47	0.008
312.68	0.008
312.89	0.009
313.10	0.009
313.31	0.009
313.52	0.009
313.73	0.009
313.94	0.009
314.15	0.009
314.36	0.009
314.57	0.009
314.78	0.009
314.99	0.009
315.21	0.009
315.42	0.009
315.63	0.009
315.84	0.009
316.05	0.009
316.26	0.009
316.47	0.009
316.68	0.009
316.89	0.009
317.10	0.009
317.31	0.009
317.52	0.009
317.73	0.010
317.94	0.010
318.15	0.010
318.36	0.010
318.57	0.010
318.78	0.010
318.99	0.010
319.20	0.010
319.41	0.010
319.62	0.010
319.83	0.010
320.04	0.010
320.25	0.010
320.46	0.010
320.67	0.010
320.88	0.010
321.09	0.010
321.30	0.010
321.51	0.010
321.72	0.010
321.93	0.010
322.14	0.010
322.35	0.010
322.56	0.010
322.77	0.010
322.98	0.010
323.19	0.010
323.40	0.010
323.61	0.010
323.82	0.010
324.03	0.010
324.24	0.011
324.45	0.011
324.66	0.011
324.87	0.011
325.08	0.011
325.29	0.011
325.50	0.010
325.71	0.011
325.92	0.011
326.13	0.011
326.34	0.011
326.55	0.010
326.76	0.011
326.97	0.010
327.18	0.010
327.39	0.010
327.60	0.010
327.80	0.011
328.01	0.010
328.22	0.011
328.43	0.011
328.64	0.011
328.85	0.011
329.06	0.010
329.27	0.010
329.48	0.011
329.69	0.010
329.90	0.011
330.11	0.010
330.32	0.010
330.53	0.010
330.74	0.010
330.95	0.010
331.16	0.010
331.37	0.010
331.58	0.010
331.79	0.010
332.00	0.010
332.21	0.010
332.42	0.010
332.63	0.010
332.83	0.010
333.04	0.010
333.25	0.010
333.46	0.010
333.67	0.010
333.88	0.010
334.09	0.010
334.30	0.010
334.51	0.010
334.72	0.010
334.93	0.010
335.14	0.010
335.35	0.009
335.56	0.009
335.77	0.009
335.98	0.009
336.18	0.009
336.39	0.009
336.60	0.009
336.81	0.009
337.02	0.009
337.23	0.009
337.44	0.009
337.65	0.009
337.86	0.009
338.07	0.009
338.28	0.009
338.49	0.008
338.70	0.008
338.91	0.008
339.11	0.008
339.32	0.008
339.53	0.008
339.74	0.008
339.95	0.008
340.16	0.007
340.37	0.007
340.58	0.007
340.79	0.007
341.00	0.007
341.21	0.007
341.41	0.007
341.62	0.007
341.83	0.006
342.04	0.006
342.25	0.006
342.46	0.006
342.67	0.006
342.88	0.006
343.09	0.006
343.30	0.006
343.50	0.006
343.71	0.006
343.92	0.006
344.13	0.006
344.34	0.006
344.55	0.006
344.76	0.006
344.97	0.006
345.18	0.005
345.38	0.005
345.59	0.005
345.80	0.005
346.01	0.005
346.22	0.005
346.43	0.005
346.64	0.005
346.85	0.005
347.06	0.005
347.26	0.005
347.47	0.005
347.68	0.005
347.89	0.004
348.10	0.004
348.31	0.004
348.52	0.004
348.73	0.004
348.93	0.004
349.14	0.004
349.35	0.004
349.56	0.004
349.77	0.004
349.98	0.004
350.19	0.004
350.39	0.004
350.60	0.004
350.81	0.004
351.02	0.004
351.23	0.004
351.44	0.004
351.65	0.004
351.86	0.004
352.06	0.004
352.27	0.004
352.48	0.004
352.69	0.003
352.90	0.003
353.11	0.004
353.31	0.004
353.52	0.004
353.73	0.004
353.94	0.003
354.15	0.003
354.36	0.003
354.57	0.003
354.77	0.003
354.98	0.003
355.19	0.003
355.40	0.003
355.61	0.003
355.82	0.003
356.02	0.003
356.23	0.003
356.44	0.003
356.65	0.003
356.86	0.003
357.07	0.003
357.27	0.003
357.48	0.003
357.69	0.003
357.90	0.003
358.11	0.003
358.32	0.003
358.52	0.003
358.73	0.002
358.94	0.002
359.15	0.002
359.36	0.002
359.56	0.002
359.77	0.002
359.98	0.002
360.19	0.002
360.40	0.002
360.61	0.002
360.81	0.002
361.02	0.002
361.23	0.002
361.44	0.002
361.65	0.002
361.85	0.002
362.06	0.002
362.27	0.002
362.48	0.002
362.69	0.002
362.89	0.002
363.10	0.002
363.31	0.002
363.52	0.002
363.73	0.002
363.93	0.002
364.14	0.002
364.35	0.002
364.56	0.002
364.77	0.002
364.97	0.002
365.18	0.002
365.39	0.002
365.60	0.002
365.81	0.002
366.01	0.001
366.22	0.001
366.43	0.001
366.64	0.001
366.84	0.001
367.05	0.001
367.26	0.002
367.47	0.002
367.68	0.002
367.88	0.002
368.09	0.002
368.30	0.002
368.51	0.002
368.71	0.002
368.92	0.002
369.13	0.002
369.34	0.002
369.55	0.002
369.75	0.002
369.96	0.002
370.17	0.002
370.38	0.002
370.58	0.002
370.79	0.002
371.00	0.002
371.21	0.002
371.41	0.002
371.62	0.002
371.83	0.002
372.04	0.002
372.24	0.002
372.45	0.002
372.66	0.002
372.87	0.002
373.07	0.002
373.28	0.002
373.49	0.002
373.70	0.001
373.90	0.001
374.11	0.001
374.32	0.001
374.53	0.001
374.73	0.001
374.94	0.001
375.15	0.001
375.36	0.001
375.56	0.001
375.77	0.001
375.98	0.001
376.19	0.001
376.39	0.001
376.60	0.001
376.81	0.001
377.02	0.001
377.22	0.001
377.43	0.001
377.64	0.001
377.84	0.001
378.05	0.001
378.26	0.001
378.47	0.001
378.67	0.001
378.88	0.001
379.09	0.001
379.30	0.001
379.50	0.001
379.71	0.001
379.92	0.001
380.12	0.001
380.33	0.001
380.54	0.001
380.75	0.001
380.95	0.001
381.16	0.000
381.37	0.001
381.57	0.001
381.78	0.001
381.99	0.001
382.20	0.001
382.40	0.001
382.61	0.001
382.82	0.001
383.02	0.000
383.23	0.001
383.44	0.001
383.64	0.000
383.85	0.001
384.06	0.001
384.27	0.000
384.47	0.000
384.68	0.000
384.89	0.000
385.09	0.000
385.30	0.000
385.51	0.000
385.71	0.000
385.92	0.000
386.13	0.000
386.33	0.000
386.54	0.000
386.75	0.000
386.95	0.000
387.16	0.000
387.37	0.000
387.58	0.000
387.78	0.000
387.99	0.000
388.20	0.000
388.40	0.000
388.61	0.000
388.82	0.000
389.02	0.000
389.23	0.000
389.44	0.000
389.64	0.000
389.85	0.000
390.06	-0.000
390.26	-0.000
390.47	-0.000
390.68	-0.000
390.88	-0.000
391.09	-0.000
391.30	-0.000
391.50	-0.000
391.71	-0.000
391.92	-0.000
392.12	0.000
392.33	0.000
392.53	0.000
392.74	0.000
392.95	0.000
393.15	0.000
393.36	0.000
393.57	0.000
393.77	0.000
393.98	0.000
394.19	0.000
394.39	0.000
394.60	0.000
394.81	0.000
395.01	0.000
395.22	0.000
395.43	0.000
395.63	0.000
395.84	-0.000
396.04	-0.000
396.25	-0.000
396.46	-0.000
396.66	-0.000
396.87	-0.000
397.08	-0.000
397.28	-0.000
397.49	-0.000
397.69	-0.000
397.90	-0.000
398.11	-0.000
398.31	-0.000
398.52	-0.000
398.73	-0.000
398.93	-0.000
399.14	-0.001
399.34	-0.001
399.55	-0.001
399.76	-0.001
399.96	-0.001
400.17	-0.001
400.37	-0.001
400.58	-0.001
400.79	-0.000
400.99	-0.000
401.20	-0.000
401.41	-0.000
401.61	-0.000
401.82	-0.000
402.02	-0.000
402.23	-0.000
402.44	-0.000
402.64	-0.000
402.85	-0.000
403.05	-0.000
403.26	-0.000
403.47	-0.001
403.67	-0.000
403.88	-0.000
404.08	-0.000
404.29	-0.000
404.50	-0.000
404.70	-0.000
404.91	-0.000
405.11	-0.000
405.32	-0.001
405.52	-0.001
405.73	-0.001
405.94	-0.001
406.14	-0.001
406.35	-0.001
406.55	-0.001
406.76	-0.001
406.97	-0.001
407.17	-0.001
407.38	-0.001
407.58	-0.001
407.79	-0.001
407.99	-0.001
408.20	-0.001
408.41	-0.001
408.61	-0.001
408.82	-0.001
409.02	-0.001
409.23	-0.001
409.43	-0.001
409.64	-0.001
409.84	-0.001
410.05	-0.001
410.26	-0.001
410.46	-0.001
410.67	-0.001
410.87	-0.001
411.08	-0.001
411.28	-0.001
411.49	-0.001
411.69	-0.001
411.90	-0.001
412.11	-0.001
412.31	-0.001
412.52	-0.001
412.72	-0.001
412.93	-0.001
413.13	-0.001
413.34	-0.001
413.54	-0.001
413.75	-0.001
413.95	-0.001
414.16	-0.001
414.37	-0.001
414.57	-0.001
414.78	-0.001
414.98	-0.001
415.19	-0.001
415.39	-0.001
415.60	-0.001
415.80	-0.001
416.01	-0.001
416.21	-0.001
416.42	-0.001
416.62	-0.001
416.83	-0.001
417.03	-0.001
417.24	-0.002
417.44	-0.002
417.65	-0.002
417.86	-0.002
418.06	-0.002
418.27	-0.002
418.47	-0.002
418.68	-0.002
418.88	-0.002
419.09	-0.002
419.29	-0.002
419.50	-0.002
419.70	-0.002
419.91	-0.002
420.11	-0.002
420.32	-0.002
420.52	-0.002
420.73	-0.002
420.93	-0.002
421.14	-0.002
421.34	-0.002
421.55	-0.002
421.75	-0.002
421.96	-0.002
422.16	-0.002
422.37	-0.002
422.57	-0.002
422.78	-0.002
422.98	-0.002
423.19	-0.002
423.39	-0.002
423.60	-0.001
423.80	-0.001
424.01	-0.001
424.21	-0.001
424.42	-0.001
424.62	-0.001
424.83	-0.001
425.03	-0.001
425.23	-0.001
425.44	-0.001
425.64	-0.002
425.85	-0.002
426.05	-0.002
426.26	-0.002
426.46	-0.002
426.67	-0.002
426.87	-0.002
427.08	-0.002
427.28	-0.002
427.49	-0.002
427.69	-0.002
427.90	-0.002
428.10	-0.002
428.31	-0.002
428.51	-0.002
428.71	-0.002
428.92	-0.002
429.12	-0.002
429.33	-0.002
429.53	-0.002
429.74	-0.002
429.94	-0.002
430.15	-0.002
430.35	-0.002
430.56	-0.002
430.76	-0.001
430.96	-0.001
431.17	-0.001
431.37	-0.001
431.58	-0.001
431.78	-0.001
431.99	-0.001
432.19	-0.001
432.40	-0.001
432.60	-0.001
432.80	-0.001
433.01	-0.002
433.21	-0.002
433.42	-0.002
433.62	-0.002
433.83	-0.002
434.03	-0.002
434.23	-0.002
434.44	-0.002
434.64	-0.002
434.85	-0.002
435.05	-0.002
435.26	-0.002
435.46	-0.002
435.66	-0.002
435.87	-0.002
436.07	-0.002
436.28	-0.002
436.48	-0.002
436.69	-0.002
436.89	-0.002
437.09	-0.002
437.30	-0.002
437.50	-0.002
437.71	-0.002
437.91	-0.002
438.11	-0.002
438.32	-0.002
438.52	-0.002
438.73	-0.002
438.93	-0.002
439.13	-0.002
439.34	-0.002
439.54	-0.002
439.75	-0.002
439.95	-0.002
440.15	-0.002
440.36	-0.002
440.56	-0.002
440.77	-0.002
440.97	-0.002
441.17	-0.002
441.38	-0.002
441.58	-0.002
441.79	-0.002
441.99	-0.002
442.19	-0.002
442.40	-0.002
442.60	-0.002
442.81	-0.002
443.01	-0.002
443.21	-0.002
443.42	-0.002
443.62	-0.002
443.82	-0.002
444.03	-0.002
444.23	-0.002
444.44	-0.002
444.64	-0.002
444.84	-0.002
445.05	-0.002
445.25	-0.002
445.45	-0.002
445.66	-0.002
445.86	-0.002
446.06	-0.002
446.27	-0.002
446.47	-0.002
446.68	-0.002
446.88	-0.002
447.08	-0.002
447.29	-0.002
447.49	-0.002
447.69	-0.002
447.90	-0.002
448.10	-0.002
448.30	-0.002
448.51	-0.002
448.71	-0.002
448.91	-0.002
449.12	-0.002
449.32	-0.002
449.52	-0.002
449.73	-0.002
449.93	-0.002
450.14	-0.002
450.34	-0.002
450.54	-0.002
450.75	-0.002
450.95	-0.002
451.15	-0.002
451.36	-0.002
451.56	-0.002
451.76	-0.002
451.97	-0.002
452.17	-0.002
452.37	-0.002
452.58	-0.002
452.78	-0.002
452.98	-0.002
453.19	-0.002
453.39	-0.002
453.59	-0.002
453.79	-0.002
454.00	-0.002
454.20	-0.002
454.40	-0.002
454.61	-0.002
454.81	-0.002
455.01	-0.002
455.22	-0.002
455.42	-0.002
455.62	-0.002
455.83	-0.002
456.03	-0.002
456.23	-0.002
456.44	-0.002
456.64	-0.002
456.84	-0.002
457.04	-0.002
457.25	-0.002
457.45	-0.002
