SpectraSuite Data File
++++++++++++++++++++++++++++++++++++
Date: Mon Jun 15 09:17:15 PDT 2015
User: introlabs
Dark Spectrum Present: Yes
Reference Spectrum Present: Yes
Number of Sampled Component Spectra: 1
Spectrometers: USB4H08886
Integration Time (usec): 44366 (USB4H08886)
Spectra Averaged: 20 (USB4H08886)
Boxcar Smoothing: 5 (USB4H08886)
Correct for Electrical Dark: Yes (USB4H08886)
Strobe/Lamp Enabled: No (USB4H08886)
Correct for Detector Non-linearity: Yes (USB4H08886)
Correct for Stray Light: Yes (USB4H08886)
Number of Pixels in Processed Spectrum: 3648
>>>>>Begin Processed Spectral Data<<<<<
178.14	-0.000
178.36	-0.000
178.57	-0.000
178.79	-0.000
179.01	-0.932
179.22	-0.000
179.44	-0.000
179.65	-0.322
179.87	0.013
180.08	0.286
180.30	0.095
180.52	0.276
180.73	0.309
180.95	0.105
181.16	0.037
181.38	0.009
181.59	0.001
181.81	-0.001
182.03	0.003
182.24	0.009
182.46	0.010
182.67	0.017
182.89	0.006
183.10	0.011
183.32	0.005
183.54	-0.008
183.75	-0.008
183.97	-0.009
184.18	-0.009
184.40	-0.013
184.61	-0.011
184.83	-0.014
185.04	-0.021
185.26	-0.017
185.48	-0.024
185.69	-0.026
185.91	-0.011
186.12	-0.016
186.34	-0.003
186.55	-0.010
186.77	-0.003
186.98	-0.008
187.20	-0.010
187.42	-0.005
187.63	-0.002
187.85	-0.003
188.06	0.010
188.28	0.007
188.49	0.010
188.71	0.007
188.92	0.009
189.14	-0.002
189.36	0.002
189.57	0.004
189.79	-0.001
190.00	-0.004
190.22	-0.000
190.43	0.001
190.65	-0.005
190.86	0.005
191.08	0.005
191.29	0.009
191.51	0.012
191.72	0.012
191.94	0.010
192.16	0.017
192.37	0.020
192.59	0.023
192.80	0.014
193.02	0.024
193.23	0.023
193.45	0.016
193.66	0.014
193.88	0.018
194.09	0.015
194.31	0.015
194.52	0.005
194.74	-0.007
194.95	-0.016
195.17	-0.014
195.38	-0.024
195.60	-0.035
195.81	-0.027
196.03	-0.027
196.25	-0.023
196.46	-0.026
196.68	-0.027
196.89	-0.015
197.11	-0.005
197.32	-0.004
197.54	-0.010
197.75	0.003
197.97	0.012
198.18	0.003
198.40	0.007
198.61	-0.005
198.83	-0.006
199.04	-0.003
199.26	-0.019
199.47	-0.024
199.69	-0.016
199.90	-0.001
200.12	-0.009
200.33	-0.013
200.55	-0.013
200.76	-0.020
200.98	-0.021
201.19	-0.021
201.41	-0.024
201.62	-0.014
201.84	-0.007
202.05	-0.006
202.27	-0.016
202.48	-0.017
202.70	-0.010
202.91	-0.006
203.13	-0.011
203.34	-0.006
203.56	-0.006
203.77	-0.007
203.99	-0.016
204.20	-0.024
204.42	-0.028
204.63	-0.025
204.85	-0.025
205.06	-0.034
205.28	-0.034
205.49	-0.024
205.71	-0.022
205.92	-0.025
206.14	-0.029
206.35	-0.018
206.56	-0.011
206.78	-0.012
206.99	-0.014
207.21	-0.012
207.42	-0.008
207.64	-0.008
207.85	-0.010
208.07	-0.012
208.28	-0.002
208.50	0.003
208.71	0.002
208.93	0.006
209.14	0.010
209.36	0.010
209.57	0.016
209.79	0.019
210.00	0.022
210.22	0.022
210.43	0.023
210.64	0.022
210.86	0.021
211.07	0.010
211.29	0.000
211.50	-0.006
211.72	-0.015
211.93	-0.022
212.15	-0.023
212.36	-0.028
212.58	-0.029
212.79	-0.033
213.01	-0.044
213.22	-0.038
213.43	-0.034
213.65	-0.028
213.86	-0.027
214.08	-0.015
214.29	-0.011
214.51	-0.014
214.72	-0.015
214.94	-0.016
215.15	-0.010
215.36	-0.005
215.58	-0.011
215.79	-0.015
216.01	-0.010
216.22	-0.009
216.44	-0.016
216.65	-0.018
216.87	-0.012
217.08	-0.014
217.29	-0.004
217.51	-0.004
217.72	-0.008
217.94	-0.003
218.15	0.006
218.37	-0.003
218.58	-0.003
218.80	0.000
219.01	-0.004
219.22	-0.013
219.44	-0.009
219.65	-0.019
219.87	-0.017
220.08	-0.015
220.30	-0.023
220.51	-0.029
220.72	-0.030
220.94	-0.035
221.15	-0.038
221.37	-0.039
221.58	-0.038
221.79	-0.034
222.01	-0.035
222.22	-0.040
222.44	-0.042
222.65	-0.042
222.87	-0.040
223.08	-0.033
223.29	-0.033
223.51	-0.028
223.72	-0.030
223.94	-0.030
224.15	-0.037
224.36	-0.034
224.58	-0.038
224.79	-0.034
225.01	-0.034
225.22	-0.033
225.44	-0.038
225.65	-0.034
225.86	-0.035
226.08	-0.035
226.29	-0.037
226.51	-0.033
226.72	-0.038
226.93	-0.034
227.15	-0.039
227.36	-0.040
227.58	-0.046
227.79	-0.041
228.00	-0.042
228.22	-0.051
228.43	-0.053
228.65	-0.054
228.86	-0.058
229.07	-0.057
229.29	-0.059
229.50	-0.061
229.72	-0.060
229.93	-0.058
230.14	-0.064
230.36	-0.068
230.57	-0.064
230.78	-0.066
231.00	-0.069
231.21	-0.071
231.43	-0.074
231.64	-0.074
231.85	-0.073
232.07	-0.076
232.28	-0.079
232.50	-0.080
232.71	-0.082
232.92	-0.084
233.14	-0.085
233.35	-0.082
233.56	-0.082
233.78	-0.083
233.99	-0.085
234.21	-0.086
234.42	-0.086
234.63	-0.086
234.85	-0.085
235.06	-0.085
235.27	-0.084
235.49	-0.084
235.70	-0.086
235.91	-0.087
236.13	-0.086
236.34	-0.085
236.56	-0.086
236.77	-0.086
236.98	-0.085
237.20	-0.085
237.41	-0.085
237.62	-0.085
237.84	-0.085
238.05	-0.084
238.26	-0.084
238.48	-0.084
238.69	-0.083
238.91	-0.082
239.12	-0.082
239.33	-0.082
239.55	-0.080
239.76	-0.080
239.97	-0.078
240.19	-0.076
240.40	-0.076
240.61	-0.075
240.83	-0.074
241.04	-0.075
241.25	-0.074
241.47	-0.073
241.68	-0.071
241.89	-0.071
242.11	-0.072
242.32	-0.072
242.53	-0.072
242.75	-0.071
242.96	-0.070
243.17	-0.069
243.39	-0.068
243.60	-0.068
243.81	-0.068
244.03	-0.068
244.24	-0.067
244.45	-0.065
244.67	-0.064
244.88	-0.062
245.09	-0.062
245.31	-0.061
245.52	-0.061
245.73	-0.061
245.95	-0.060
246.16	-0.059
246.37	-0.059
246.59	-0.058
246.80	-0.058
247.01	-0.057
247.23	-0.057
247.44	-0.057
247.65	-0.057
247.87	-0.056
248.08	-0.055
248.29	-0.055
248.51	-0.054
248.72	-0.053
248.93	-0.053
249.15	-0.053
249.36	-0.053
249.57	-0.053
249.78	-0.053
250.00	-0.052
250.21	-0.052
250.42	-0.052
250.64	-0.051
250.85	-0.051
251.06	-0.051
251.28	-0.050
251.49	-0.050
251.70	-0.050
251.92	-0.049
252.13	-0.048
252.34	-0.048
252.55	-0.048
252.77	-0.048
252.98	-0.047
253.19	-0.047
253.41	-0.047
253.62	-0.046
253.83	-0.046
254.05	-0.045
254.26	-0.045
254.47	-0.045
254.68	-0.046
254.90	-0.045
255.11	-0.045
255.32	-0.044
255.54	-0.044
255.75	-0.044
255.96	-0.043
256.17	-0.044
256.39	-0.043
256.60	-0.043
256.81	-0.043
257.03	-0.042
257.24	-0.042
257.45	-0.042
257.66	-0.043
257.88	-0.043
258.09	-0.043
258.30	-0.043
258.51	-0.043
258.73	-0.043
258.94	-0.043
259.15	-0.043
259.37	-0.043
259.58	-0.043
259.79	-0.044
260.00	-0.043
260.22	-0.043
260.43	-0.043
260.64	-0.043
260.85	-0.043
261.07	-0.043
261.28	-0.044
261.49	-0.044
261.71	-0.043
261.92	-0.043
262.13	-0.043
262.34	-0.043
262.56	-0.043
262.77	-0.043
262.98	-0.044
263.19	-0.044
263.41	-0.044
263.62	-0.044
263.83	-0.045
264.04	-0.045
264.26	-0.045
264.47	-0.045
264.68	-0.045
264.89	-0.045
265.11	-0.045
265.32	-0.045
265.53	-0.045
265.74	-0.045
265.96	-0.046
266.17	-0.045
266.38	-0.045
266.59	-0.045
266.81	-0.045
267.02	-0.046
267.23	-0.046
267.44	-0.047
267.65	-0.047
267.87	-0.047
268.08	-0.048
268.29	-0.048
268.50	-0.048
268.72	-0.048
268.93	-0.048
269.14	-0.048
269.35	-0.048
269.57	-0.049
269.78	-0.049
269.99	-0.049
270.20	-0.049
270.41	-0.049
270.63	-0.049
270.84	-0.050
271.05	-0.050
271.26	-0.050
271.48	-0.050
271.69	-0.051
271.90	-0.051
272.11	-0.050
272.32	-0.051
272.54	-0.051
272.75	-0.051
272.96	-0.052
273.17	-0.052
273.39	-0.051
273.60	-0.051
273.81	-0.052
274.02	-0.052
274.23	-0.052
274.45	-0.052
274.66	-0.052
274.87	-0.053
275.08	-0.053
275.29	-0.053
275.51	-0.053
275.72	-0.053
275.93	-0.053
276.14	-0.053
276.35	-0.053
276.57	-0.053
276.78	-0.053
276.99	-0.053
277.20	-0.053
277.41	-0.053
277.63	-0.052
277.84	-0.052
278.05	-0.052
278.26	-0.052
278.47	-0.052
278.69	-0.052
278.90	-0.051
279.11	-0.051
279.32	-0.051
279.53	-0.050
279.74	-0.050
279.96	-0.050
280.17	-0.050
280.38	-0.050
280.59	-0.049
280.80	-0.049
281.02	-0.049
281.23	-0.049
281.44	-0.048
281.65	-0.048
281.86	-0.048
282.07	-0.047
282.29	-0.047
282.50	-0.047
282.71	-0.047
282.92	-0.047
283.13	-0.047
283.35	-0.046
283.56	-0.046
283.77	-0.046
283.98	-0.046
284.19	-0.045
284.40	-0.045
284.62	-0.045
284.83	-0.044
285.04	-0.044
285.25	-0.043
285.46	-0.042
285.67	-0.042
285.88	-0.041
286.10	-0.040
286.31	-0.039
286.52	-0.039
286.73	-0.038
286.94	-0.037
287.15	-0.036
287.37	-0.036
287.58	-0.035
287.79	-0.035
288.00	-0.034
288.21	-0.033
288.42	-0.033
288.63	-0.032
288.85	-0.032
289.06	-0.031
289.27	-0.030
289.48	-0.030
289.69	-0.029
289.90	-0.028
290.11	-0.028
290.33	-0.027
290.54	-0.027
290.75	-0.026
290.96	-0.026
291.17	-0.025
291.38	-0.025
291.59	-0.024
291.81	-0.024
292.02	-0.024
292.23	-0.023
292.44	-0.023
292.65	-0.023
292.86	-0.022
293.07	-0.022
293.28	-0.022
293.50	-0.022
293.71	-0.022
293.92	-0.021
294.13	-0.021
294.34	-0.021
294.55	-0.021
294.76	-0.020
294.97	-0.020
295.19	-0.020
295.40	-0.020
295.61	-0.020
295.82	-0.020
296.03	-0.020
296.24	-0.020
296.45	-0.020
296.66	-0.020
296.87	-0.019
297.09	-0.019
297.30	-0.019
297.51	-0.019
297.72	-0.019
297.93	-0.019
298.14	-0.018
298.35	-0.018
298.56	-0.018
298.77	-0.018
298.99	-0.018
299.20	-0.018
299.41	-0.018
299.62	-0.018
299.83	-0.018
300.04	-0.018
300.25	-0.017
300.46	-0.017
300.67	-0.017
300.88	-0.017
301.10	-0.017
301.31	-0.017
301.52	-0.017
301.73	-0.017
301.94	-0.016
302.15	-0.017
302.36	-0.017
302.57	-0.016
302.78	-0.017
302.99	-0.017
303.20	-0.017
303.41	-0.017
303.63	-0.017
303.84	-0.016
304.05	-0.017
304.26	-0.016
304.47	-0.016
304.68	-0.016
304.89	-0.016
305.10	-0.016
305.31	-0.016
305.52	-0.016
305.73	-0.016
305.94	-0.016
306.15	-0.016
306.37	-0.015
306.58	-0.015
306.79	-0.015
307.00	-0.015
307.21	-0.015
307.42	-0.015
307.63	-0.015
307.84	-0.015
308.05	-0.015
308.26	-0.015
308.47	-0.015
308.68	-0.015
308.89	-0.015
309.10	-0.015
309.31	-0.015
309.52	-0.014
309.73	-0.014
309.95	-0.014
310.16	-0.014
310.37	-0.014
310.58	-0.014
310.79	-0.014
311.00	-0.014
311.21	-0.014
311.42	-0.014
311.63	-0.014
311.84	-0.014
312.05	-0.014
312.26	-0.014
312.47	-0.014
312.68	-0.013
312.89	-0.013
313.10	-0.013
313.31	-0.013
313.52	-0.013
313.73	-0.013
313.94	-0.013
314.15	-0.013
314.36	-0.013
314.57	-0.013
314.78	-0.013
314.99	-0.013
315.21	-0.013
315.42	-0.013
315.63	-0.013
315.84	-0.013
316.05	-0.013
316.26	-0.013
316.47	-0.013
316.68	-0.013
316.89	-0.013
317.10	-0.013
317.31	-0.013
317.52	-0.013
317.73	-0.012
317.94	-0.012
318.15	-0.012
318.36	-0.012
318.57	-0.012
318.78	-0.012
318.99	-0.012
319.20	-0.012
319.41	-0.012
319.62	-0.012
319.83	-0.012
320.04	-0.012
320.25	-0.012
320.46	-0.012
320.67	-0.012
320.88	-0.012
321.09	-0.012
321.30	-0.012
321.51	-0.012
321.72	-0.012
321.93	-0.012
322.14	-0.012
322.35	-0.012
322.56	-0.012
322.77	-0.011
322.98	-0.011
323.19	-0.011
323.40	-0.011
323.61	-0.011
323.82	-0.011
324.03	-0.011
324.24	-0.011
324.45	-0.011
324.66	-0.011
324.87	-0.011
325.08	-0.011
325.29	-0.011
325.50	-0.011
325.71	-0.011
325.92	-0.011
326.13	-0.011
326.34	-0.011
326.55	-0.011
326.76	-0.011
326.97	-0.011
327.18	-0.011
327.39	-0.010
327.60	-0.010
327.80	-0.010
328.01	-0.010
328.22	-0.010
328.43	-0.010
328.64	-0.010
328.85	-0.010
329.06	-0.010
329.27	-0.010
329.48	-0.010
329.69	-0.010
329.90	-0.010
330.11	-0.010
330.32	-0.010
330.53	-0.010
330.74	-0.010
330.95	-0.010
331.16	-0.010
331.37	-0.010
331.58	-0.010
331.79	-0.010
332.00	-0.010
332.21	-0.010
332.42	-0.010
332.63	-0.010
332.83	-0.010
333.04	-0.010
333.25	-0.010
333.46	-0.010
333.67	-0.010
333.88	-0.010
334.09	-0.010
334.30	-0.010
334.51	-0.010
334.72	-0.010
334.93	-0.010
335.14	-0.010
335.35	-0.010
335.56	-0.010
335.77	-0.010
335.98	-0.010
336.18	-0.010
336.39	-0.010
336.60	-0.010
336.81	-0.010
337.02	-0.010
337.23	-0.010
337.44	-0.010
337.65	-0.010
337.86	-0.010
338.07	-0.010
338.28	-0.010
338.49	-0.010
338.70	-0.010
338.91	-0.010
339.11	-0.010
339.32	-0.010
339.53	-0.010
339.74	-0.010
339.95	-0.010
340.16	-0.010
340.37	-0.010
340.58	-0.010
340.79	-0.010
341.00	-0.010
341.21	-0.010
341.41	-0.010
341.62	-0.010
341.83	-0.010
342.04	-0.010
342.25	-0.010
342.46	-0.010
342.67	-0.011
342.88	-0.011
343.09	-0.010
343.30	-0.010
343.50	-0.010
343.71	-0.010
343.92	-0.010
344.13	-0.010
344.34	-0.010
344.55	-0.010
344.76	-0.010
344.97	-0.010
345.18	-0.010
345.38	-0.010
345.59	-0.010
345.80	-0.010
346.01	-0.010
346.22	-0.010
346.43	-0.010
346.64	-0.010
346.85	-0.010
347.06	-0.010
347.26	-0.010
347.47	-0.010
347.68	-0.010
347.89	-0.010
348.10	-0.011
348.31	-0.011
348.52	-0.011
348.73	-0.011
348.93	-0.011
349.14	-0.011
349.35	-0.011
349.56	-0.011
349.77	-0.011
349.98	-0.011
350.19	-0.011
350.39	-0.011
350.60	-0.011
350.81	-0.011
351.02	-0.011
351.23	-0.011
351.44	-0.011
351.65	-0.010
351.86	-0.010
352.06	-0.010
352.27	-0.010
352.48	-0.010
352.69	-0.010
352.90	-0.010
353.11	-0.010
353.31	-0.010
353.52	-0.010
353.73	-0.010
353.94	-0.010
354.15	-0.010
354.36	-0.010
354.57	-0.010
354.77	-0.010
354.98	-0.010
355.19	-0.010
355.40	-0.010
355.61	-0.010
355.82	-0.010
356.02	-0.010
356.23	-0.010
356.44	-0.010
356.65	-0.010
356.86	-0.010
357.07	-0.010
357.27	-0.010
357.48	-0.010
357.69	-0.010
357.90	-0.010
358.11	-0.010
358.32	-0.010
358.52	-0.010
358.73	-0.010
358.94	-0.010
359.15	-0.010
359.36	-0.010
359.56	-0.010
359.77	-0.010
359.98	-0.010
360.19	-0.010
360.40	-0.010
360.61	-0.010
360.81	-0.010
361.02	-0.010
361.23	-0.010
361.44	-0.010
361.65	-0.010
361.85	-0.010
362.06	-0.010
362.27	-0.010
362.48	-0.010
362.69	-0.010
362.89	-0.010
363.10	-0.010
363.31	-0.010
363.52	-0.010
363.73	-0.010
363.93	-0.010
364.14	-0.010
364.35	-0.010
364.56	-0.010
364.77	-0.010
364.97	-0.010
365.18	-0.010
365.39	-0.010
365.60	-0.010
365.81	-0.010
366.01	-0.010
366.22	-0.010
366.43	-0.010
366.64	-0.010
366.84	-0.010
367.05	-0.010
367.26	-0.010
367.47	-0.010
367.68	-0.010
367.88	-0.010
368.09	-0.009
368.30	-0.009
368.51	-0.009
368.71	-0.009
368.92	-0.009
369.13	-0.009
369.34	-0.009
369.55	-0.009
369.75	-0.009
369.96	-0.009
370.17	-0.009
370.38	-0.009
370.58	-0.010
370.79	-0.009
371.00	-0.009
371.21	-0.009
371.41	-0.009
371.62	-0.009
371.83	-0.009
372.04	-0.009
372.24	-0.009
372.45	-0.009
372.66	-0.009
372.87	-0.009
373.07	-0.009
373.28	-0.009
373.49	-0.009
373.70	-0.009
373.90	-0.009
374.11	-0.009
374.32	-0.009
374.53	-0.009
374.73	-0.009
374.94	-0.009
375.15	-0.009
375.36	-0.009
375.56	-0.009
375.77	-0.009
375.98	-0.009
376.19	-0.009
376.39	-0.009
376.60	-0.009
376.81	-0.009
377.02	-0.009
377.22	-0.009
377.43	-0.009
377.64	-0.009
377.84	-0.009
378.05	-0.009
378.26	-0.009
378.47	-0.009
378.67	-0.009
378.88	-0.009
379.09	-0.009
379.30	-0.009
379.50	-0.009
379.71	-0.009
379.92	-0.009
380.12	-0.009
380.33	-0.009
380.54	-0.009
380.75	-0.009
380.95	-0.009
381.16	-0.009
381.37	-0.009
381.57	-0.009
381.78	-0.009
381.99	-0.009
382.20	-0.009
382.40	-0.009
382.61	-0.009
382.82	-0.009
383.02	-0.009
383.23	-0.009
383.44	-0.009
383.64	-0.009
383.85	-0.009
384.06	-0.009
384.27	-0.009
384.47	-0.009
384.68	-0.009
384.89	-0.009
385.09	-0.009
385.30	-0.009
385.51	-0.009
385.71	-0.009
385.92	-0.009
386.13	-0.009
386.33	-0.009
386.54	-0.009
386.75	-0.009
386.95	-0.009
387.16	-0.009
387.37	-0.009
387.58	-0.009
387.78	-0.009
387.99	-0.009
388.20	-0.009
388.40	-0.009
388.61	-0.009
388.82	-0.009
389.02	-0.009
389.23	-0.009
389.44	-0.008
389.64	-0.008
389.85	-0.009
390.06	-0.009
390.26	-0.009
390.47	-0.009
390.68	-0.009
390.88	-0.009
391.09	-0.009
391.30	-0.009
391.50	-0.009
391.71	-0.009
391.92	-0.009
392.12	-0.009
392.33	-0.009
392.53	-0.009
392.74	-0.009
392.95	-0.009
393.15	-0.009
393.36	-0.009
393.57	-0.009
393.77	-0.009
393.98	-0.008
394.19	-0.008
394.39	-0.008
394.60	-0.008
394.81	-0.008
395.01	-0.008
395.22	-0.008
395.43	-0.009
395.63	-0.009
395.84	-0.009
396.04	-0.009
396.25	-0.009
396.46	-0.009
396.66	-0.009
396.87	-0.009
397.08	-0.009
397.28	-0.009
397.49	-0.009
397.69	-0.009
397.90	-0.009
398.11	-0.009
398.31	-0.009
398.52	-0.009
398.73	-0.008
398.93	-0.009
399.14	-0.009
399.34	-0.009
399.55	-0.009
399.76	-0.009
399.96	-0.009
400.17	-0.008
400.37	-0.008
400.58	-0.008
400.79	-0.008
400.99	-0.008
401.20	-0.008
401.41	-0.008
401.61	-0.008
401.82	-0.008
402.02	-0.008
402.23	-0.008
402.44	-0.008
402.64	-0.008
402.85	-0.008
403.05	-0.009
403.26	-0.008
403.47	-0.008
403.67	-0.008
403.88	-0.008
404.08	-0.008
404.29	-0.009
404.50	-0.008
404.70	-0.009
404.91	-0.009
405.11	-0.009
405.32	-0.009
405.52	-0.009
405.73	-0.009
405.94	-0.009
406.14	-0.009
406.35	-0.009
406.55	-0.009
406.76	-0.009
406.97	-0.009
407.17	-0.009
407.38	-0.009
407.58	-0.009
407.79	-0.009
407.99	-0.008
408.20	-0.008
408.41	-0.008
408.61	-0.008
408.82	-0.008
409.02	-0.008
409.23	-0.008
409.43	-0.008
409.64	-0.008
409.84	-0.008
410.05	-0.008
410.26	-0.009
410.46	-0.008
410.67	-0.009
410.87	-0.009
411.08	-0.009
411.28	-0.009
411.49	-0.008
411.69	-0.009
411.90	-0.009
412.11	-0.009
412.31	-0.008
412.52	-0.008
412.72	-0.008
412.93	-0.008
413.13	-0.008
413.34	-0.008
413.54	-0.008
413.75	-0.008
413.95	-0.008
414.16	-0.008
414.37	-0.008
414.57	-0.008
414.78	-0.008
414.98	-0.008
415.19	-0.008
415.39	-0.008
415.60	-0.008
415.80	-0.008
416.01	-0.008
416.21	-0.008
416.42	-0.008
416.62	-0.009
416.83	-0.009
417.03	-0.009
417.24	-0.009
417.44	-0.009
417.65	-0.009
417.86	-0.009
418.06	-0.009
418.27	-0.009
418.47	-0.009
418.68	-0.009
418.88	-0.009
419.09	-0.009
419.29	-0.009
419.50	-0.009
419.70	-0.009
419.91	-0.009
420.11	-0.009
420.32	-0.009
420.52	-0.009
420.73	-0.009
420.93	-0.009
421.14	-0.009
421.34	-0.009
421.55	-0.009
421.75	-0.009
421.96	-0.009
422.16	-0.009
422.37	-0.009
422.57	-0.009
422.78	-0.009
422.98	-0.009
423.19	-0.009
423.39	-0.009
423.60	-0.009
423.80	-0.009
424.01	-0.009
424.21	-0.008
424.42	-0.008
424.62	-0.008
424.83	-0.008
425.03	-0.008
425.23	-0.008
425.44	-0.008
425.64	-0.008
425.85	-0.008
426.05	-0.008
426.26	-0.008
426.46	-0.008
426.67	-0.008
426.87	-0.009
427.08	-0.009
427.28	-0.009
427.49	-0.009
427.69	-0.009
427.90	-0.009
428.10	-0.009
428.31	-0.009
428.51	-0.009
428.71	-0.009
428.92	-0.009
429.12	-0.009
429.33	-0.009
429.53	-0.009
429.74	-0.009
429.94	-0.008
430.15	-0.008
430.35	-0.008
430.56	-0.008
430.76	-0.008
430.96	-0.008
431.17	-0.008
431.37	-0.008
431.58	-0.008
431.78	-0.008
431.99	-0.008
432.19	-0.008
432.40	-0.008
432.60	-0.008
432.80	-0.008
433.01	-0.008
433.21	-0.008
433.42	-0.008
433.62	-0.008
433.83	-0.008
434.03	-0.008
434.23	-0.008
434.44	-0.008
434.64	-0.008
434.85	-0.008
435.05	-0.008
435.26	-0.008
435.46	-0.008
435.66	-0.008
435.87	-0.008
436.07	-0.008
436.28	-0.008
436.48	-0.008
436.69	-0.008
436.89	-0.008
437.09	-0.008
437.30	-0.008
437.50	-0.008
437.71	-0.008
437.91	-0.008
438.11	-0.008
438.32	-0.008
438.52	-0.008
438.73	-0.008
438.93	-0.008
439.13	-0.008
439.34	-0.008
439.54	-0.008
439.75	-0.008
439.95	-0.008
440.15	-0.008
440.36	-0.008
440.56	-0.008
440.77	-0.008
440.97	-0.008
441.17	-0.008
441.38	-0.008
441.58	-0.008
441.79	-0.008
441.99	-0.008
442.19	-0.008
442.40	-0.008
442.60	-0.008
442.81	-0.008
443.01	-0.008
443.21	-0.008
443.42	-0.008
443.62	-0.008
443.82	-0.008
444.03	-0.008
444.23	-0.008
444.44	-0.008
444.64	-0.008
444.84	-0.008
445.05	-0.008
445.25	-0.008
445.45	-0.008
445.66	-0.008
445.86	-0.008
446.06	-0.008
446.27	-0.008
446.47	-0.008
446.68	-0.008
446.88	-0.008
447.08	-0.008
447.29	-0.008
447.49	-0.008
447.69	-0.008
447.90	-0.008
448.10	-0.008
448.30	-0.008
448.51	-0.008
448.71	-0.008
448.91	-0.008
449.12	-0.008
449.32	-0.008
449.52	-0.008
449.73	-0.007
449.93	-0.007
