SpectraSuite Data File
++++++++++++++++++++++++++++++++++++
Date: Mon Jun 15 07:14:41 PDT 2015
User: introlabs
Dark Spectrum Present: Yes
Reference Spectrum Present: Yes
Number of Sampled Component Spectra: 1
Spectrometers: USB4H08886
Integration Time (usec): 44366 (USB4H08886)
Spectra Averaged: 20 (USB4H08886)
Boxcar Smoothing: 5 (USB4H08886)
Correct for Electrical Dark: Yes (USB4H08886)
Strobe/Lamp Enabled: No (USB4H08886)
Correct for Detector Non-linearity: Yes (USB4H08886)
Correct for Stray Light: Yes (USB4H08886)
Number of Pixels in Processed Spectrum: 3648
>>>>>Begin Processed Spectral Data<<<<<
178.14	0.421
178.36	0.421
178.57	0.421
178.79	-0.000
179.01	-0.868
179.22	-0.000
179.44	-0.000
179.65	-0.194
179.87	-0.009
180.08	0.567
180.30	0.502
180.52	0.137
180.73	0.138
180.95	0.112
181.16	0.043
181.38	0.011
181.59	0.042
181.81	0.015
182.03	0.026
182.24	0.033
182.46	0.036
182.67	0.030
182.89	0.040
183.10	0.044
183.32	0.034
183.54	0.023
183.75	0.028
183.97	0.027
184.18	0.027
184.40	0.021
184.61	0.022
184.83	0.016
185.04	0.011
185.26	0.006
185.48	0.004
185.69	0.016
185.91	0.024
186.12	0.022
186.34	0.029
186.55	0.019
186.77	0.021
186.98	0.012
187.20	0.010
187.42	0.017
187.63	0.016
187.85	0.013
188.06	0.012
188.28	0.009
188.49	0.015
188.71	0.004
188.92	0.013
189.14	0.000
189.36	0.008
189.57	0.015
189.79	0.008
190.00	0.007
190.22	0.006
190.43	0.006
190.65	0.004
190.86	0.002
191.08	0.007
191.29	0.008
191.51	0.019
191.72	0.012
191.94	0.004
192.16	0.010
192.37	0.008
192.59	0.008
192.80	0.003
193.02	0.016
193.23	0.017
193.45	0.008
193.66	0.003
193.88	0.005
194.09	0.007
194.31	0.009
194.52	0.005
194.74	0.003
194.95	0.008
195.17	0.003
195.38	-0.004
195.60	-0.016
195.81	-0.001
196.03	0.006
196.25	0.008
196.46	0.014
196.68	0.020
196.89	0.027
197.11	0.029
197.32	0.026
197.54	0.024
197.75	0.033
197.97	0.038
198.18	0.028
198.40	0.030
198.61	0.026
198.83	0.018
199.04	0.008
199.26	-0.003
199.47	-0.005
199.69	-0.001
199.90	0.016
200.12	0.009
200.33	0.018
200.55	0.017
200.76	0.007
200.98	0.005
201.19	0.005
201.41	0.010
201.62	0.015
201.84	0.018
202.05	0.014
202.27	0.008
202.48	0.006
202.70	0.006
202.91	0.006
203.13	0.008
203.34	0.001
203.56	0.007
203.77	0.011
203.99	0.007
204.20	0.005
204.42	-0.000
204.63	0.001
204.85	-0.007
205.06	-0.010
205.28	-0.011
205.49	-0.006
205.71	0.006
205.92	0.003
206.14	-0.004
206.35	0.002
206.56	0.013
206.78	0.016
206.99	0.019
207.21	0.029
207.42	0.029
207.64	0.034
207.85	0.031
208.07	0.027
208.28	0.021
208.50	0.025
208.71	0.029
208.93	0.020
209.14	0.019
209.36	0.016
209.57	0.021
209.79	0.016
210.00	0.013
210.22	0.016
210.43	0.015
210.64	0.021
210.86	0.010
211.07	0.002
211.29	-0.003
211.50	-0.003
211.72	-0.008
211.93	-0.014
212.15	-0.011
212.36	-0.012
212.58	-0.013
212.79	-0.011
213.01	-0.019
213.22	-0.015
213.43	-0.007
213.65	-0.002
213.86	-0.002
214.08	0.004
214.29	-0.001
214.51	0.001
214.72	0.000
214.94	-0.001
215.15	0.003
215.36	0.009
215.58	0.012
215.79	0.004
216.01	0.012
216.22	0.022
216.44	0.014
216.65	0.014
216.87	0.016
217.08	0.017
217.29	0.021
217.51	0.022
217.72	0.018
217.94	0.021
218.15	0.027
218.37	0.017
218.58	0.008
218.80	0.018
219.01	0.020
219.22	0.016
219.44	0.021
219.65	0.022
219.87	0.016
220.08	0.021
220.30	0.017
220.51	0.013
220.72	0.016
220.94	0.012
221.15	0.008
221.37	0.007
221.58	0.006
221.79	0.005
222.01	-0.006
222.22	-0.008
222.44	-0.013
222.65	-0.013
222.87	-0.016
223.08	-0.016
223.29	-0.014
223.51	-0.016
223.72	-0.012
223.94	-0.011
224.15	-0.014
224.36	-0.011
224.58	-0.013
224.79	-0.009
225.01	-0.009
225.22	-0.009
225.44	-0.010
225.65	-0.004
225.86	-0.001
226.08	-0.005
226.29	-0.006
226.51	-0.002
226.72	0.005
226.93	0.011
227.15	0.006
227.36	0.005
227.58	0.005
227.79	0.010
228.00	0.006
228.22	0.002
228.43	0.003
228.65	0.006
228.86	0.006
229.07	0.001
229.29	0.000
229.50	0.003
229.72	0.003
229.93	0.005
230.14	0.003
230.36	0.005
230.57	0.008
230.78	0.009
231.00	0.007
231.21	0.005
231.43	0.009
231.64	0.009
231.85	0.012
232.07	0.013
232.28	0.015
232.50	0.014
232.71	0.011
232.92	0.010
233.14	0.012
233.35	0.013
233.56	0.014
233.78	0.011
233.99	0.010
234.21	0.011
234.42	0.011
234.63	0.010
234.85	0.010
235.06	0.011
235.27	0.012
235.49	0.013
235.70	0.012
235.91	0.011
236.13	0.013
236.34	0.013
236.56	0.010
236.77	0.010
236.98	0.011
237.20	0.011
237.41	0.012
237.62	0.012
237.84	0.010
238.05	0.010
238.26	0.008
238.48	0.007
238.69	0.009
238.91	0.010
239.12	0.010
239.33	0.009
239.55	0.008
239.76	0.008
239.97	0.008
240.19	0.008
240.40	0.008
240.61	0.009
240.83	0.008
241.04	0.006
241.25	0.007
241.47	0.007
241.68	0.008
241.89	0.008
242.11	0.008
242.32	0.007
242.53	0.007
242.75	0.008
242.96	0.008
243.17	0.009
243.39	0.010
243.60	0.008
243.81	0.008
244.03	0.008
244.24	0.008
244.45	0.009
244.67	0.009
244.88	0.010
245.09	0.009
245.31	0.009
245.52	0.009
245.73	0.009
245.95	0.010
246.16	0.010
246.37	0.010
246.59	0.010
246.80	0.010
247.01	0.010
247.23	0.009
247.44	0.009
247.65	0.009
247.87	0.009
248.08	0.009
248.29	0.009
248.51	0.009
248.72	0.009
248.93	0.009
249.15	0.009
249.36	0.009
249.57	0.009
249.78	0.009
250.00	0.009
250.21	0.009
250.42	0.009
250.64	0.009
250.85	0.009
251.06	0.009
251.28	0.009
251.49	0.009
251.70	0.009
251.92	0.009
252.13	0.009
252.34	0.010
252.55	0.009
252.77	0.009
252.98	0.009
253.19	0.009
253.41	0.009
253.62	0.009
253.83	0.009
254.05	0.009
254.26	0.009
254.47	0.009
254.68	0.009
254.90	0.009
255.11	0.009
255.32	0.009
255.54	0.009
255.75	0.009
255.96	0.009
256.17	0.009
256.39	0.009
256.60	0.009
256.81	0.009
257.03	0.010
257.24	0.010
257.45	0.010
257.66	0.009
257.88	0.009
258.09	0.009
258.30	0.009
258.51	0.009
258.73	0.009
258.94	0.009
259.15	0.009
259.37	0.009
259.58	0.008
259.79	0.008
260.00	0.009
260.22	0.009
260.43	0.008
260.64	0.008
260.85	0.008
261.07	0.008
261.28	0.008
261.49	0.008
261.71	0.008
261.92	0.009
262.13	0.008
262.34	0.009
262.56	0.008
262.77	0.009
262.98	0.008
263.19	0.008
263.41	0.008
263.62	0.008
263.83	0.007
264.04	0.007
264.26	0.007
264.47	0.007
264.68	0.007
264.89	0.008
265.11	0.007
265.32	0.008
265.53	0.008
265.74	0.008
265.96	0.008
266.17	0.008
266.38	0.008
266.59	0.009
266.81	0.008
267.02	0.008
267.23	0.008
267.44	0.008
267.65	0.007
267.87	0.007
268.08	0.007
268.29	0.008
268.50	0.008
268.72	0.008
268.93	0.008
269.14	0.008
269.35	0.008
269.57	0.008
269.78	0.009
269.99	0.009
270.20	0.009
270.41	0.008
270.63	0.008
270.84	0.008
271.05	0.008
271.26	0.007
271.48	0.007
271.69	0.007
271.90	0.007
272.11	0.007
272.32	0.006
272.54	0.006
272.75	0.007
272.96	0.007
273.17	0.007
273.39	0.007
273.60	0.007
273.81	0.006
274.02	0.006
274.23	0.007
274.45	0.007
274.66	0.007
274.87	0.007
275.08	0.006
275.29	0.006
275.51	0.006
275.72	0.006
275.93	0.006
276.14	0.007
276.35	0.007
276.57	0.006
276.78	0.007
276.99	0.007
277.20	0.007
277.41	0.007
277.63	0.007
277.84	0.007
278.05	0.007
278.26	0.007
278.47	0.007
278.69	0.007
278.90	0.007
279.11	0.007
279.32	0.007
279.53	0.007
279.74	0.007
279.96	0.007
280.17	0.007
280.38	0.007
280.59	0.007
280.80	0.007
281.02	0.007
281.23	0.007
281.44	0.007
281.65	0.007
281.86	0.007
282.07	0.007
282.29	0.007
282.50	0.007
282.71	0.007
282.92	0.007
283.13	0.007
283.35	0.007
283.56	0.007
283.77	0.007
283.98	0.007
284.19	0.007
284.40	0.007
284.62	0.007
284.83	0.007
285.04	0.007
285.25	0.006
285.46	0.007
285.67	0.007
285.88	0.007
286.10	0.007
286.31	0.007
286.52	0.007
286.73	0.007
286.94	0.007
287.15	0.007
287.37	0.007
287.58	0.007
287.79	0.008
288.00	0.008
288.21	0.008
288.42	0.008
288.63	0.008
288.85	0.008
289.06	0.008
289.27	0.008
289.48	0.008
289.69	0.007
289.90	0.007
290.11	0.007
290.33	0.007
290.54	0.007
290.75	0.007
290.96	0.007
291.17	0.007
291.38	0.007
291.59	0.007
291.81	0.007
292.02	0.008
292.23	0.008
292.44	0.008
292.65	0.007
292.86	0.008
293.07	0.008
293.28	0.007
293.50	0.008
293.71	0.008
293.92	0.008
294.13	0.008
294.34	0.008
294.55	0.008
294.76	0.008
294.97	0.008
295.19	0.008
295.40	0.008
295.61	0.008
295.82	0.008
296.03	0.007
296.24	0.008
296.45	0.007
296.66	0.007
296.87	0.007
297.09	0.007
297.30	0.007
297.51	0.007
297.72	0.007
297.93	0.007
298.14	0.007
298.35	0.007
298.56	0.007
298.77	0.007
298.99	0.007
299.20	0.007
299.41	0.007
299.62	0.007
299.83	0.007
300.04	0.007
300.25	0.007
300.46	0.007
300.67	0.008
300.88	0.008
301.10	0.008
301.31	0.008
301.52	0.007
301.73	0.007
301.94	0.008
302.15	0.007
302.36	0.007
302.57	0.007
302.78	0.007
302.99	0.007
303.20	0.007
303.41	0.007
303.63	0.007
303.84	0.007
304.05	0.007
304.26	0.007
304.47	0.007
304.68	0.007
304.89	0.007
305.10	0.007
305.31	0.007
305.52	0.007
305.73	0.007
305.94	0.007
306.15	0.007
306.37	0.007
306.58	0.007
306.79	0.007
307.00	0.007
307.21	0.007
307.42	0.007
307.63	0.007
307.84	0.007
308.05	0.007
308.26	0.007
308.47	0.007
308.68	0.007
308.89	0.007
309.10	0.007
309.31	0.007
309.52	0.007
309.73	0.007
309.95	0.007
310.16	0.006
310.37	0.006
310.58	0.006
310.79	0.006
311.00	0.006
311.21	0.006
311.42	0.006
311.63	0.006
311.84	0.006
312.05	0.006
312.26	0.006
312.47	0.006
312.68	0.007
312.89	0.006
313.10	0.007
313.31	0.007
313.52	0.007
313.73	0.007
313.94	0.007
314.15	0.007
314.36	0.007
314.57	0.007
314.78	0.007
314.99	0.007
315.21	0.007
315.42	0.007
315.63	0.007
315.84	0.007
316.05	0.007
316.26	0.007
316.47	0.007
316.68	0.007
316.89	0.007
317.10	0.006
317.31	0.007
317.52	0.006
317.73	0.007
317.94	0.007
318.15	0.007
318.36	0.007
318.57	0.007
318.78	0.007
318.99	0.006
319.20	0.007
319.41	0.007
319.62	0.007
319.83	0.007
320.04	0.007
320.25	0.006
320.46	0.006
320.67	0.006
320.88	0.006
321.09	0.006
321.30	0.006
321.51	0.006
321.72	0.006
321.93	0.006
322.14	0.006
322.35	0.006
322.56	0.006
322.77	0.006
322.98	0.006
323.19	0.006
323.40	0.006
323.61	0.006
323.82	0.006
324.03	0.006
324.24	0.006
324.45	0.006
324.66	0.006
324.87	0.006
325.08	0.006
325.29	0.006
325.50	0.006
325.71	0.006
325.92	0.006
326.13	0.006
326.34	0.006
326.55	0.006
326.76	0.006
326.97	0.006
327.18	0.006
327.39	0.006
327.60	0.006
327.80	0.006
328.01	0.006
328.22	0.006
328.43	0.006
328.64	0.006
328.85	0.006
329.06	0.006
329.27	0.006
329.48	0.006
329.69	0.006
329.90	0.006
330.11	0.006
330.32	0.006
330.53	0.006
330.74	0.006
330.95	0.006
331.16	0.006
331.37	0.006
331.58	0.006
331.79	0.006
332.00	0.006
332.21	0.006
332.42	0.006
332.63	0.006
332.83	0.006
333.04	0.006
333.25	0.006
333.46	0.006
333.67	0.006
333.88	0.006
334.09	0.006
334.30	0.006
334.51	0.006
334.72	0.006
334.93	0.006
335.14	0.006
335.35	0.006
335.56	0.006
335.77	0.005
335.98	0.005
336.18	0.005
336.39	0.005
336.60	0.005
336.81	0.005
337.02	0.005
337.23	0.006
337.44	0.006
337.65	0.006
337.86	0.006
338.07	0.006
338.28	0.006
338.49	0.006
338.70	0.006
338.91	0.006
339.11	0.006
339.32	0.006
339.53	0.006
339.74	0.006
339.95	0.006
340.16	0.006
340.37	0.006
340.58	0.006
340.79	0.006
341.00	0.006
341.21	0.006
341.41	0.006
341.62	0.006
341.83	0.006
342.04	0.006
342.25	0.006
342.46	0.006
342.67	0.005
342.88	0.005
343.09	0.006
343.30	0.006
343.50	0.005
343.71	0.005
343.92	0.006
344.13	0.005
344.34	0.005
344.55	0.005
344.76	0.005
344.97	0.005
345.18	0.005
345.38	0.005
345.59	0.005
345.80	0.005
346.01	0.005
346.22	0.005
346.43	0.005
346.64	0.005
346.85	0.005
347.06	0.005
347.26	0.005
347.47	0.005
347.68	0.005
347.89	0.005
348.10	0.005
348.31	0.005
348.52	0.005
348.73	0.005
348.93	0.005
349.14	0.005
349.35	0.005
349.56	0.005
349.77	0.005
349.98	0.005
350.19	0.005
350.39	0.005
350.60	0.005
350.81	0.004
351.02	0.004
351.23	0.004
351.44	0.004
351.65	0.005
351.86	0.005
352.06	0.005
352.27	0.005
352.48	0.005
352.69	0.005
352.90	0.005
353.11	0.004
353.31	0.005
353.52	0.005
353.73	0.005
353.94	0.005
354.15	0.004
354.36	0.004
354.57	0.004
354.77	0.004
354.98	0.005
355.19	0.005
355.40	0.005
355.61	0.005
355.82	0.005
356.02	0.005
356.23	0.005
356.44	0.005
356.65	0.005
356.86	0.005
357.07	0.005
357.27	0.005
357.48	0.005
357.69	0.005
357.90	0.005
358.11	0.005
358.32	0.005
358.52	0.004
358.73	0.004
358.94	0.004
359.15	0.004
359.36	0.004
359.56	0.004
359.77	0.004
359.98	0.004
360.19	0.004
360.40	0.004
360.61	0.004
360.81	0.004
361.02	0.004
361.23	0.005
361.44	0.004
361.65	0.004
361.85	0.004
362.06	0.004
362.27	0.004
362.48	0.005
362.69	0.004
362.89	0.004
363.10	0.005
363.31	0.005
363.52	0.005
363.73	0.005
363.93	0.005
364.14	0.005
364.35	0.005
364.56	0.004
364.77	0.005
364.97	0.005
365.18	0.005
365.39	0.004
365.60	0.004
365.81	0.004
366.01	0.004
366.22	0.004
366.43	0.004
366.64	0.004
366.84	0.005
367.05	0.005
367.26	0.005
367.47	0.005
367.68	0.005
367.88	0.005
368.09	0.005
368.30	0.005
368.51	0.005
368.71	0.005
368.92	0.005
369.13	0.005
369.34	0.005
369.55	0.005
369.75	0.005
369.96	0.005
370.17	0.005
370.38	0.004
370.58	0.004
370.79	0.004
371.00	0.004
371.21	0.004
371.41	0.004
371.62	0.004
371.83	0.004
372.04	0.005
372.24	0.005
372.45	0.004
372.66	0.005
372.87	0.005
373.07	0.004
373.28	0.005
373.49	0.005
373.70	0.004
373.90	0.004
374.11	0.004
374.32	0.004
374.53	0.004
374.73	0.004
374.94	0.004
375.15	0.004
375.36	0.004
375.56	0.004
375.77	0.004
375.98	0.004
376.19	0.004
376.39	0.004
376.60	0.004
376.81	0.004
377.02	0.004
377.22	0.004
377.43	0.004
377.64	0.004
377.84	0.004
378.05	0.004
378.26	0.004
378.47	0.004
378.67	0.004
378.88	0.004
379.09	0.004
379.30	0.004
379.50	0.004
379.71	0.004
379.92	0.004
380.12	0.004
380.33	0.004
380.54	0.004
380.75	0.004
380.95	0.004
381.16	0.004
381.37	0.004
381.57	0.004
381.78	0.004
381.99	0.004
382.20	0.004
382.40	0.004
382.61	0.004
382.82	0.004
383.02	0.004
383.23	0.004
383.44	0.004
383.64	0.004
383.85	0.004
384.06	0.004
384.27	0.004
384.47	0.004
384.68	0.004
384.89	0.004
385.09	0.004
385.30	0.004
385.51	0.004
385.71	0.004
385.92	0.004
386.13	0.004
386.33	0.004
386.54	0.004
386.75	0.004
386.95	0.004
387.16	0.004
387.37	0.004
387.58	0.004
387.78	0.004
387.99	0.004
388.20	0.004
388.40	0.004
388.61	0.004
388.82	0.004
389.02	0.004
389.23	0.004
389.44	0.004
389.64	0.004
389.85	0.004
390.06	0.004
390.26	0.004
390.47	0.004
390.68	0.003
390.88	0.004
391.09	0.004
391.30	0.004
391.50	0.004
391.71	0.004
391.92	0.004
392.12	0.004
392.33	0.004
392.53	0.004
392.74	0.004
392.95	0.004
393.15	0.004
393.36	0.004
393.57	0.004
393.77	0.004
393.98	0.004
394.19	0.004
394.39	0.004
394.60	0.004
394.81	0.004
395.01	0.004
395.22	0.004
395.43	0.004
395.63	0.004
395.84	0.004
396.04	0.004
396.25	0.004
396.46	0.004
396.66	0.004
396.87	0.004
397.08	0.004
397.28	0.004
397.49	0.004
397.69	0.004
397.90	0.004
398.11	0.004
398.31	0.004
398.52	0.004
398.73	0.004
398.93	0.004
399.14	0.004
399.34	0.004
399.55	0.004
399.76	0.004
399.96	0.004
400.17	0.004
400.37	0.004
400.58	0.003
400.79	0.003
400.99	0.003
401.20	0.003
401.41	0.004
401.61	0.004
401.82	0.004
402.02	0.004
402.23	0.004
402.44	0.004
402.64	0.004
402.85	0.004
403.05	0.004
403.26	0.004
403.47	0.004
403.67	0.004
403.88	0.004
404.08	0.004
404.29	0.004
404.50	0.004
404.70	0.004
404.91	0.004
405.11	0.004
405.32	0.003
405.52	0.003
405.73	0.003
405.94	0.003
406.14	0.003
406.35	0.003
406.55	0.003
406.76	0.003
406.97	0.003
407.17	0.003
407.38	0.003
407.58	0.003
407.79	0.003
407.99	0.003
408.20	0.003
408.41	0.004
408.61	0.004
408.82	0.004
409.02	0.004
409.23	0.004
409.43	0.004
409.64	0.004
409.84	0.004
410.05	0.004
410.26	0.004
410.46	0.004
410.67	0.004
410.87	0.004
411.08	0.004
411.28	0.004
411.49	0.004
411.69	0.003
411.90	0.003
412.11	0.003
412.31	0.003
412.52	0.003
412.72	0.003
412.93	0.003
413.13	0.003
413.34	0.003
413.54	0.003
413.75	0.003
413.95	0.004
414.16	0.004
414.37	0.004
414.57	0.004
414.78	0.004
414.98	0.004
415.19	0.004
415.39	0.004
415.60	0.004
415.80	0.004
416.01	0.003
416.21	0.003
416.42	0.004
416.62	0.003
416.83	0.003
417.03	0.003
417.24	0.003
417.44	0.003
417.65	0.003
417.86	0.003
418.06	0.003
418.27	0.003
418.47	0.003
418.68	0.003
418.88	0.003
419.09	0.003
419.29	0.003
419.50	0.003
419.70	0.003
419.91	0.003
420.11	0.003
420.32	0.003
420.52	0.003
420.73	0.003
420.93	0.003
421.14	0.003
421.34	0.003
421.55	0.003
421.75	0.003
421.96	0.003
422.16	0.003
422.37	0.003
422.57	0.003
422.78	0.003
422.98	0.003
423.19	0.003
423.39	0.003
423.60	0.003
423.80	0.003
424.01	0.003
424.21	0.003
424.42	0.003
424.62	0.003
424.83	0.003
425.03	0.003
425.23	0.003
425.44	0.003
425.64	0.003
425.85	0.003
426.05	0.003
426.26	0.003
426.46	0.003
426.67	0.003
426.87	0.003
427.08	0.003
427.28	0.003
427.49	0.003
427.69	0.003
427.90	0.003
428.10	0.004
428.31	0.004
428.51	0.004
428.71	0.004
428.92	0.003
429.12	0.004
429.33	0.004
429.53	0.004
429.74	0.004
429.94	0.004
430.15	0.003
430.35	0.003
430.56	0.003
430.76	0.003
430.96	0.003
431.17	0.003
431.37	0.003
431.58	0.003
431.78	0.003
431.99	0.003
432.19	0.003
432.40	0.003
432.60	0.003
432.80	0.003
433.01	0.003
433.21	0.003
433.42	0.003
433.62	0.003
433.83	0.003
434.03	0.003
434.23	0.003
434.44	0.003
434.64	0.003
434.85	0.003
435.05	0.004
435.26	0.003
435.46	0.003
435.66	0.003
435.87	0.003
436.07	0.003
436.28	0.003
436.48	0.003
436.69	0.003
436.89	0.003
437.09	0.003
437.30	0.003
437.50	0.003
437.71	0.003
437.91	0.003
438.11	0.003
438.32	0.003
438.52	0.003
438.73	0.003
438.93	0.003
439.13	0.003
439.34	0.003
439.54	0.003
439.75	0.003
439.95	0.003
440.15	0.003
440.36	0.003
440.56	0.003
440.77	0.003
440.97	0.003
441.17	0.003
441.38	0.003
441.58	0.003
441.79	0.003
441.99	0.003
442.19	0.003
442.40	0.003
442.60	0.003
442.81	0.003
443.01	0.003
443.21	0.003
443.42	0.003
443.62	0.003
443.82	0.003
444.03	0.003
444.23	0.003
444.44	0.003
444.64	0.003
444.84	0.003
445.05	0.003
445.25	0.003
445.45	0.003
445.66	0.003
445.86	0.003
446.06	0.003
446.27	0.003
446.47	0.003
446.68	0.003
446.88	0.003
447.08	0.003
447.29	0.003
447.49	0.003
447.69	0.003
447.90	0.003
448.10	0.003
448.30	0.003
448.51	0.003
448.71	0.003
448.91	0.003
449.12	0.003
449.32	0.002
449.52	0.003
449.73	0.003
449.93	0.003
450.14	0.003
450.34	0.003
450.54	0.002
450.75	0.002
450.95	0.003
451.15	0.003
451.36	0.003
451.56	0.003
451.76	0.003
451.97	0.002
452.17	0.002
452.37	0.002
452.58	0.002
452.78	0.003
452.98	0.002
453.19	0.002
453.39	0.002
453.59	0.003
453.79	0.002
454.00	0.003
454.20	0.003
454.40	0.003
454.61	0.003
454.81	0.003
455.01	0.003
455.22	0.003
455.42	0.003
455.62	0.002
455.83	0.002
456.03	0.003
456.23	0.003
456.44	0.003
456.64	0.003
456.84	0.003
457.04	0.003
457.25	0.003
457.45	0.003
457.65	0.003
457.86	0.003
458.06	0.003
458.26	0.003
458.47	0.003
458.67	0.003
458.87	0.003
459.07	0.003
459.28	0.003
459.48	0.003
459.68	0.003
459.89	0.002
460.09	0.002
460.29	0.002
460.49	0.002
460.70	0.002
460.90	0.003
461.10	0.003
461.31	0.003
461.51	0.003
461.71	0.003
461.91	0.003
462.12	0.003
462.32	0.003
462.52	0.003
462.72	0.003
462.93	0.003
463.13	0.003
463.33	0.002
463.53	0.003
463.74	0.002
463.94	0.003
464.14	0.003
464.35	0.003
464.55	0.003
464.75	0.003
464.95	0.003
465.16	0.003
465.36	0.003
465.56	0.003
465.76	0.003
465.97	0.003
466.17	0.003
466.37	0.003
466.57	0.003
466.78	0.003
466.98	0.003
