SpectraSuite Data File
++++++++++++++++++++++++++++++++++++
Date: Mon Jun 15 06:12:53 PDT 2015
User: introlabs
Dark Spectrum Present: Yes
Reference Spectrum Present: Yes
Number of Sampled Component Spectra: 1
Spectrometers: USB4H08886
Integration Time (usec): 44366 (USB4H08886)
Spectra Averaged: 20 (USB4H08886)
Boxcar Smoothing: 5 (USB4H08886)
Correct for Electrical Dark: Yes (USB4H08886)
Strobe/Lamp Enabled: No (USB4H08886)
Correct for Detector Non-linearity: Yes (USB4H08886)
Correct for Stray Light: Yes (USB4H08886)
Number of Pixels in Processed Spectrum: 3648
>>>>>Begin Processed Spectral Data<<<<<
178.14	-0.391
178.36	-0.391
178.57	-0.391
178.79	-1.805
179.01	-0.081
179.22	-1.914
179.44	-1.067
179.65	-0.000
179.87	-0.000
180.08	-0.000
180.30	-0.000
180.52	-0.000
180.73	-0.000
180.95	0.316
181.16	0.100
181.38	0.067
181.59	0.074
181.81	0.076
182.03	0.081
182.24	0.066
182.46	0.039
182.67	0.044
182.89	0.031
183.10	0.022
183.32	0.020
183.54	0.018
183.75	0.002
183.97	0.002
184.18	-0.002
184.40	-0.012
184.61	-0.010
184.83	-0.010
185.04	-0.012
185.26	0.002
185.48	-0.007
185.69	-0.009
185.91	-0.009
186.12	0.005
186.34	0.010
186.55	0.006
186.77	0.002
186.98	-0.003
187.20	-0.005
187.42	-0.009
187.63	-0.018
187.85	-0.015
188.06	-0.013
188.28	-0.010
188.49	-0.012
188.71	-0.019
188.92	-0.024
189.14	-0.018
189.36	-0.006
189.57	-0.005
189.79	0.002
190.00	0.003
190.22	0.012
190.43	0.012
190.65	0.011
190.86	0.011
191.08	0.016
191.29	0.016
191.51	0.011
191.72	0.002
191.94	0.005
192.16	0.001
192.37	-0.000
192.59	-0.009
192.80	-0.009
193.02	-0.012
193.23	-0.003
193.45	-0.005
193.66	0.005
193.88	0.012
194.09	0.021
194.31	0.022
194.52	0.034
194.74	0.039
194.95	0.041
195.17	0.041
195.38	0.046
195.60	0.045
195.81	0.041
196.03	0.037
196.25	0.045
196.46	0.026
196.68	0.020
196.89	0.008
197.11	0.004
197.32	-0.003
197.54	-0.006
197.75	-0.010
197.97	-0.015
198.18	-0.011
198.40	-0.010
198.61	-0.021
198.83	-0.014
199.04	-0.013
199.26	-0.010
199.47	-0.015
199.69	-0.008
199.90	-0.009
200.12	-0.000
200.33	-0.010
200.55	-0.014
200.76	-0.021
200.98	-0.021
201.19	-0.010
201.41	-0.009
201.62	-0.007
201.84	-0.004
202.05	-0.003
202.27	-0.009
202.48	-0.018
202.70	-0.005
202.91	-0.010
203.13	-0.003
203.34	0.000
203.56	-0.009
203.77	-0.007
203.99	-0.011
204.20	-0.007
204.42	-0.003
204.63	0.003
204.85	0.002
205.06	-0.008
205.28	-0.005
205.49	-0.009
205.71	-0.007
205.92	-0.007
206.14	-0.009
206.35	-0.006
206.56	-0.007
206.78	-0.008
206.99	-0.007
207.21	-0.001
207.42	0.003
207.64	0.002
207.85	0.004
208.07	0.001
208.28	-0.002
208.50	-0.006
208.71	-0.011
208.93	-0.013
209.14	-0.018
209.36	-0.015
209.57	-0.014
209.79	-0.011
210.00	-0.003
210.22	-0.003
210.43	-0.003
210.64	0.005
210.86	0.012
211.07	0.014
211.29	0.011
211.50	0.019
211.72	0.014
211.93	0.007
212.15	0.006
212.36	0.009
212.58	0.008
212.79	0.007
213.01	-0.001
213.22	-0.006
213.43	-0.003
213.65	0.004
213.86	-0.006
214.08	-0.005
214.29	-0.002
214.51	-0.012
214.72	-0.016
214.94	-0.016
215.15	-0.016
215.36	-0.012
215.58	-0.011
215.79	-0.015
216.01	-0.020
216.22	-0.010
216.44	-0.011
216.65	-0.006
216.87	0.003
217.08	0.006
217.29	0.015
217.51	0.012
217.72	0.006
217.94	0.012
218.15	0.014
218.37	0.007
218.58	0.007
218.80	0.009
219.01	0.004
219.22	0.001
219.44	-0.005
219.65	-0.018
219.87	-0.024
220.08	-0.014
220.30	-0.023
220.51	-0.020
220.72	-0.012
220.94	-0.016
221.15	-0.013
221.37	-0.013
221.58	-0.015
221.79	-0.008
222.01	-0.007
222.22	0.002
222.44	-0.002
222.65	0.006
222.87	0.001
223.08	-0.007
223.29	-0.008
223.51	-0.018
223.72	-0.017
223.94	-0.016
224.15	-0.026
224.36	-0.024
224.58	-0.023
224.79	-0.019
225.01	-0.024
225.22	-0.020
225.44	-0.013
225.65	-0.013
225.86	-0.005
226.08	-0.004
226.29	-0.003
226.51	-0.001
226.72	0.002
226.93	-0.001
227.15	-0.009
227.36	-0.006
227.58	-0.007
227.79	-0.010
228.00	-0.009
228.22	-0.014
228.43	-0.017
228.65	-0.015
228.86	-0.015
229.07	-0.016
229.29	-0.014
229.50	-0.010
229.72	-0.018
229.93	-0.019
230.14	-0.017
230.36	-0.015
230.57	-0.017
230.78	-0.017
231.00	-0.020
231.21	-0.020
231.43	-0.019
231.64	-0.017
231.85	-0.017
232.07	-0.013
232.28	-0.015
232.50	-0.015
232.71	-0.017
232.92	-0.017
233.14	-0.015
233.35	-0.017
233.56	-0.016
233.78	-0.018
233.99	-0.020
234.21	-0.019
234.42	-0.017
234.63	-0.017
234.85	-0.018
235.06	-0.021
235.27	-0.020
235.49	-0.022
235.70	-0.021
235.91	-0.023
236.13	-0.023
236.34	-0.024
236.56	-0.025
236.77	-0.026
236.98	-0.026
237.20	-0.028
237.41	-0.026
237.62	-0.024
237.84	-0.025
238.05	-0.023
238.26	-0.022
238.48	-0.023
238.69	-0.023
238.91	-0.022
239.12	-0.021
239.33	-0.021
239.55	-0.020
239.76	-0.020
239.97	-0.020
240.19	-0.019
240.40	-0.019
240.61	-0.019
240.83	-0.018
241.04	-0.018
241.25	-0.018
241.47	-0.018
241.68	-0.018
241.89	-0.018
242.11	-0.018
242.32	-0.018
242.53	-0.018
242.75	-0.018
242.96	-0.018
243.17	-0.019
243.39	-0.018
243.60	-0.017
243.81	-0.017
244.03	-0.017
244.24	-0.016
244.45	-0.016
244.67	-0.017
244.88	-0.016
245.09	-0.015
245.31	-0.015
245.52	-0.014
245.73	-0.014
245.95	-0.015
246.16	-0.014
246.37	-0.013
246.59	-0.013
246.80	-0.013
247.01	-0.012
247.23	-0.012
247.44	-0.012
247.65	-0.012
247.87	-0.011
248.08	-0.012
248.29	-0.011
248.51	-0.011
248.72	-0.012
248.93	-0.011
249.15	-0.011
249.36	-0.011
249.57	-0.011
249.78	-0.011
250.00	-0.011
250.21	-0.011
250.42	-0.010
250.64	-0.010
250.85	-0.010
251.06	-0.010
251.28	-0.010
251.49	-0.009
251.70	-0.009
251.92	-0.009
252.13	-0.009
252.34	-0.008
252.55	-0.008
252.77	-0.008
252.98	-0.008
253.19	-0.008
253.41	-0.008
253.62	-0.008
253.83	-0.009
254.05	-0.009
254.26	-0.009
254.47	-0.009
254.68	-0.009
254.90	-0.009
255.11	-0.009
255.32	-0.009
255.54	-0.009
255.75	-0.009
255.96	-0.009
256.17	-0.009
256.39	-0.009
256.60	-0.009
256.81	-0.009
257.03	-0.008
257.24	-0.008
257.45	-0.008
257.66	-0.008
257.88	-0.008
258.09	-0.008
258.30	-0.008
258.51	-0.008
258.73	-0.008
258.94	-0.007
259.15	-0.007
259.37	-0.007
259.58	-0.008
259.79	-0.007
260.00	-0.007
260.22	-0.008
260.43	-0.007
260.64	-0.008
260.85	-0.008
261.07	-0.008
261.28	-0.007
261.49	-0.007
261.71	-0.007
261.92	-0.007
262.13	-0.007
262.34	-0.008
262.56	-0.007
262.77	-0.007
262.98	-0.007
263.19	-0.007
263.41	-0.008
263.62	-0.008
263.83	-0.008
264.04	-0.008
264.26	-0.008
264.47	-0.008
264.68	-0.008
264.89	-0.009
265.11	-0.009
265.32	-0.009
265.53	-0.009
265.74	-0.009
265.96	-0.009
266.17	-0.009
266.38	-0.009
266.59	-0.010
266.81	-0.009
267.02	-0.009
267.23	-0.009
267.44	-0.009
267.65	-0.009
267.87	-0.010
268.08	-0.010
268.29	-0.010
268.50	-0.010
268.72	-0.010
268.93	-0.010
269.14	-0.010
269.35	-0.011
269.57	-0.011
269.78	-0.011
269.99	-0.011
270.20	-0.011
270.41	-0.012
270.63	-0.012
270.84	-0.012
271.05	-0.012
271.26	-0.012
271.48	-0.012
271.69	-0.012
271.90	-0.012
272.11	-0.013
272.32	-0.012
272.54	-0.013
272.75	-0.013
272.96	-0.013
273.17	-0.013
273.39	-0.013
273.60	-0.013
273.81	-0.013
274.02	-0.014
274.23	-0.014
274.45	-0.014
274.66	-0.014
274.87	-0.014
275.08	-0.013
275.29	-0.014
275.51	-0.014
275.72	-0.014
275.93	-0.013
276.14	-0.013
276.35	-0.013
276.57	-0.013
276.78	-0.013
276.99	-0.013
277.20	-0.013
277.41	-0.013
277.63	-0.013
277.84	-0.013
278.05	-0.013
278.26	-0.013
278.47	-0.013
278.69	-0.013
278.90	-0.013
279.11	-0.013
279.32	-0.013
279.53	-0.013
279.74	-0.012
279.96	-0.012
280.17	-0.012
280.38	-0.012
280.59	-0.012
280.80	-0.012
281.02	-0.012
281.23	-0.013
281.44	-0.013
281.65	-0.013
281.86	-0.012
282.07	-0.012
282.29	-0.012
282.50	-0.012
282.71	-0.012
282.92	-0.012
283.13	-0.011
283.35	-0.011
283.56	-0.011
283.77	-0.011
283.98	-0.010
284.19	-0.011
284.40	-0.010
284.62	-0.010
284.83	-0.010
285.04	-0.010
285.25	-0.010
285.46	-0.010
285.67	-0.010
285.88	-0.009
286.10	-0.009
286.31	-0.010
286.52	-0.009
286.73	-0.009
286.94	-0.009
287.15	-0.008
287.37	-0.008
287.58	-0.008
287.79	-0.008
288.00	-0.008
288.21	-0.007
288.42	-0.007
288.63	-0.007
288.85	-0.006
289.06	-0.006
289.27	-0.006
289.48	-0.006
289.69	-0.006
289.90	-0.005
290.11	-0.005
290.33	-0.005
290.54	-0.005
290.75	-0.005
290.96	-0.005
291.17	-0.005
291.38	-0.004
291.59	-0.005
291.81	-0.004
292.02	-0.004
292.23	-0.004
292.44	-0.004
292.65	-0.004
292.86	-0.004
293.07	-0.004
293.28	-0.004
293.50	-0.004
293.71	-0.003
293.92	-0.003
294.13	-0.003
294.34	-0.003
294.55	-0.003
294.76	-0.003
294.97	-0.003
295.19	-0.003
295.40	-0.003
295.61	-0.003
295.82	-0.002
296.03	-0.002
296.24	-0.002
296.45	-0.002
296.66	-0.002
296.87	-0.002
297.09	-0.002
297.30	-0.002
297.51	-0.002
297.72	-0.002
297.93	-0.002
298.14	-0.002
298.35	-0.002
298.56	-0.002
298.77	-0.002
298.99	-0.002
299.20	-0.002
299.41	-0.002
299.62	-0.002
299.83	-0.002
300.04	-0.002
300.25	-0.002
300.46	-0.002
300.67	-0.002
300.88	-0.002
301.10	-0.002
301.31	-0.002
301.52	-0.002
301.73	-0.002
301.94	-0.002
302.15	-0.003
302.36	-0.003
302.57	-0.003
302.78	-0.003
302.99	-0.003
303.20	-0.003
303.41	-0.003
303.63	-0.003
303.84	-0.003
304.05	-0.003
304.26	-0.003
304.47	-0.003
304.68	-0.003
304.89	-0.003
305.10	-0.003
305.31	-0.003
305.52	-0.003
305.73	-0.003
305.94	-0.003
306.15	-0.003
306.37	-0.003
306.58	-0.003
306.79	-0.003
307.00	-0.003
307.21	-0.003
307.42	-0.002
307.63	-0.002
307.84	-0.002
308.05	-0.002
308.26	-0.002
308.47	-0.002
308.68	-0.002
308.89	-0.002
309.10	-0.002
309.31	-0.002
309.52	-0.002
309.73	-0.002
309.95	-0.002
310.16	-0.002
310.37	-0.002
310.58	-0.002
310.79	-0.002
311.00	-0.002
311.21	-0.003
311.42	-0.003
311.63	-0.003
311.84	-0.003
312.05	-0.003
312.26	-0.003
312.47	-0.003
312.68	-0.003
312.89	-0.003
313.10	-0.002
313.31	-0.002
313.52	-0.002
313.73	-0.002
313.94	-0.002
314.15	-0.002
314.36	-0.002
314.57	-0.002
314.78	-0.002
314.99	-0.002
315.21	-0.002
315.42	-0.002
315.63	-0.002
315.84	-0.002
316.05	-0.002
316.26	-0.003
316.47	-0.003
316.68	-0.003
316.89	-0.003
317.10	-0.003
317.31	-0.003
317.52	-0.003
317.73	-0.003
317.94	-0.002
318.15	-0.002
318.36	-0.002
318.57	-0.002
318.78	-0.002
318.99	-0.002
319.20	-0.002
319.41	-0.002
319.62	-0.002
319.83	-0.002
320.04	-0.002
320.25	-0.002
320.46	-0.002
320.67	-0.002
320.88	-0.002
321.09	-0.002
321.30	-0.003
321.51	-0.003
321.72	-0.003
321.93	-0.003
322.14	-0.003
322.35	-0.003
322.56	-0.003
322.77	-0.003
322.98	-0.003
323.19	-0.003
323.40	-0.002
323.61	-0.002
323.82	-0.002
324.03	-0.002
324.24	-0.002
324.45	-0.002
324.66	-0.002
324.87	-0.002
325.08	-0.002
325.29	-0.002
325.50	-0.002
325.71	-0.002
325.92	-0.002
326.13	-0.002
326.34	-0.002
326.55	-0.002
326.76	-0.002
326.97	-0.002
327.18	-0.002
327.39	-0.002
327.60	-0.002
327.80	-0.002
328.01	-0.002
328.22	-0.002
328.43	-0.002
328.64	-0.002
328.85	-0.002
329.06	-0.002
329.27	-0.002
329.48	-0.002
329.69	-0.002
329.90	-0.002
330.11	-0.002
330.32	-0.002
330.53	-0.002
330.74	-0.002
330.95	-0.002
331.16	-0.002
331.37	-0.002
331.58	-0.002
331.79	-0.002
332.00	-0.002
332.21	-0.002
332.42	-0.002
332.63	-0.002
332.83	-0.002
333.04	-0.002
333.25	-0.002
333.46	-0.002
333.67	-0.002
333.88	-0.002
334.09	-0.002
334.30	-0.002
334.51	-0.002
334.72	-0.002
334.93	-0.002
335.14	-0.002
335.35	-0.002
335.56	-0.002
335.77	-0.002
335.98	-0.002
336.18	-0.001
336.39	-0.002
336.60	-0.002
336.81	-0.002
337.02	-0.002
337.23	-0.002
337.44	-0.002
337.65	-0.002
337.86	-0.002
338.07	-0.002
338.28	-0.002
338.49	-0.002
338.70	-0.002
338.91	-0.002
339.11	-0.002
339.32	-0.002
339.53	-0.002
339.74	-0.002
339.95	-0.001
340.16	-0.001
340.37	-0.001
340.58	-0.001
340.79	-0.001
341.00	-0.001
341.21	-0.001
341.41	-0.001
341.62	-0.001
341.83	-0.001
342.04	-0.001
342.25	-0.001
342.46	-0.001
342.67	-0.002
342.88	-0.001
343.09	-0.002
343.30	-0.002
343.50	-0.002
343.71	-0.001
343.92	-0.002
344.13	-0.001
344.34	-0.001
344.55	-0.001
344.76	-0.001
344.97	-0.001
345.18	-0.002
345.38	-0.001
345.59	-0.001
345.80	-0.001
346.01	-0.001
346.22	-0.001
346.43	-0.001
346.64	-0.001
346.85	-0.001
347.06	-0.001
347.26	-0.001
347.47	-0.001
347.68	-0.002
347.89	-0.002
348.10	-0.002
348.31	-0.002
348.52	-0.002
348.73	-0.002
348.93	-0.002
349.14	-0.002
349.35	-0.002
349.56	-0.002
349.77	-0.001
349.98	-0.001
350.19	-0.001
350.39	-0.001
350.60	-0.001
350.81	-0.001
351.02	-0.001
351.23	-0.001
351.44	-0.001
351.65	-0.001
351.86	-0.001
352.06	-0.001
352.27	-0.001
352.48	-0.001
352.69	-0.001
352.90	-0.001
353.11	-0.001
353.31	-0.001
353.52	-0.001
353.73	-0.001
353.94	-0.001
354.15	-0.001
354.36	-0.001
354.57	-0.001
354.77	-0.001
354.98	-0.001
355.19	-0.001
355.40	-0.001
355.61	-0.001
355.82	-0.001
356.02	-0.001
356.23	-0.001
356.44	-0.001
356.65	-0.001
356.86	-0.001
357.07	-0.001
357.27	-0.001
357.48	-0.001
357.69	-0.001
357.90	-0.001
358.11	-0.001
358.32	-0.001
358.52	-0.001
358.73	-0.001
358.94	-0.001
359.15	-0.001
359.36	-0.001
359.56	-0.001
359.77	-0.001
359.98	-0.001
360.19	-0.001
360.40	-0.001
360.61	-0.001
360.81	-0.001
361.02	-0.001
361.23	-0.001
361.44	-0.001
361.65	-0.001
361.85	-0.001
362.06	-0.001
362.27	-0.001
362.48	-0.001
362.69	-0.001
362.89	-0.001
363.10	-0.001
363.31	-0.001
363.52	-0.001
363.73	-0.001
363.93	-0.001
364.14	-0.001
364.35	-0.001
364.56	-0.001
364.77	-0.001
364.97	-0.001
365.18	-0.001
365.39	-0.001
365.60	-0.001
365.81	-0.001
366.01	-0.001
366.22	-0.001
366.43	-0.001
366.64	-0.001
366.84	-0.001
367.05	-0.001
367.26	-0.001
367.47	-0.001
367.68	-0.001
367.88	-0.001
368.09	-0.001
368.30	-0.001
368.51	-0.001
368.71	-0.001
368.92	-0.001
369.13	-0.001
369.34	-0.001
369.55	-0.001
369.75	-0.001
369.96	-0.001
370.17	-0.001
370.38	-0.001
370.58	-0.001
370.79	-0.001
371.00	-0.001
371.21	-0.001
371.41	-0.001
371.62	-0.001
371.83	-0.001
372.04	-0.001
372.24	-0.001
372.45	-0.000
372.66	-0.000
372.87	-0.000
373.07	-0.001
373.28	-0.001
373.49	-0.001
373.70	-0.001
373.90	-0.001
374.11	-0.001
374.32	-0.001
374.53	-0.001
374.73	-0.001
374.94	-0.001
375.15	-0.001
375.36	-0.001
375.56	-0.001
375.77	-0.001
375.98	-0.001
376.19	-0.001
376.39	-0.001
376.60	-0.001
376.81	-0.001
377.02	-0.001
377.22	-0.001
377.43	-0.001
377.64	-0.001
377.84	-0.001
378.05	-0.001
378.26	-0.001
378.47	-0.001
378.67	-0.001
378.88	-0.001
379.09	-0.001
379.30	-0.001
379.50	-0.001
379.71	-0.001
379.92	-0.001
380.12	-0.001
380.33	-0.001
380.54	-0.001
380.75	-0.001
380.95	-0.001
381.16	-0.001
381.37	-0.001
381.57	-0.001
381.78	-0.001
381.99	-0.001
382.20	-0.001
382.40	-0.001
382.61	-0.001
382.82	-0.001
383.02	-0.001
383.23	-0.001
383.44	-0.001
383.64	-0.001
383.85	-0.001
384.06	-0.001
384.27	-0.001
384.47	-0.001
384.68	-0.001
384.89	-0.001
385.09	-0.001
385.30	-0.001
385.51	-0.001
385.71	-0.001
385.92	-0.001
386.13	-0.001
386.33	-0.001
386.54	-0.001
386.75	-0.001
386.95	-0.001
387.16	-0.001
387.37	-0.001
387.58	-0.001
387.78	-0.001
387.99	-0.001
388.20	-0.001
388.40	-0.001
388.61	-0.001
388.82	-0.001
389.02	-0.001
389.23	-0.001
389.44	-0.001
389.64	-0.001
389.85	-0.001
390.06	-0.001
390.26	-0.001
390.47	-0.001
390.68	-0.001
390.88	-0.001
391.09	-0.001
391.30	-0.001
391.50	-0.001
391.71	-0.001
391.92	-0.001
392.12	-0.000
392.33	-0.001
392.53	-0.001
392.74	-0.001
392.95	-0.001
393.15	-0.001
393.36	-0.001
393.57	-0.001
393.77	-0.001
393.98	-0.001
394.19	-0.001
394.39	-0.001
394.60	-0.001
394.81	-0.001
395.01	-0.001
395.22	-0.000
395.43	-0.000
395.63	-0.000
395.84	-0.001
396.04	-0.000
396.25	-0.001
396.46	-0.001
396.66	-0.001
396.87	-0.001
397.08	-0.001
397.28	-0.001
397.49	-0.001
397.69	-0.001
397.90	-0.001
398.11	-0.000
398.31	-0.001
398.52	-0.000
398.73	-0.000
398.93	-0.000
399.14	-0.000
399.34	-0.000
399.55	-0.000
399.76	-0.000
399.96	-0.000
400.17	-0.000
400.37	-0.000
400.58	-0.000
400.79	-0.000
400.99	-0.000
401.20	-0.000
401.41	-0.000
401.61	-0.000
401.82	-0.000
402.02	-0.000
402.23	-0.000
402.44	-0.000
402.64	-0.000
402.85	-0.000
403.05	-0.000
403.26	-0.000
403.47	-0.001
403.67	-0.001
403.88	-0.001
404.08	-0.001
404.29	-0.000
404.50	-0.001
404.70	-0.001
404.91	-0.001
405.11	-0.001
405.32	-0.001
405.52	-0.001
405.73	-0.001
405.94	-0.001
406.14	-0.001
406.35	-0.001
406.55	-0.001
406.76	-0.001
406.97	-0.001
407.17	-0.001
407.38	-0.001
407.58	-0.001
407.79	-0.001
407.99	-0.000
408.20	-0.000
408.41	-0.000
408.61	-0.000
408.82	-0.000
409.02	-0.000
409.23	-0.000
409.43	-0.000
409.64	-0.000
409.84	-0.000
410.05	-0.000
410.26	-0.000
410.46	-0.000
410.67	-0.000
410.87	-0.000
411.08	-0.000
411.28	-0.000
411.49	-0.001
411.69	-0.001
411.90	-0.001
412.11	-0.000
412.31	-0.000
412.52	-0.000
412.72	-0.001
412.93	-0.001
413.13	-0.001
413.34	-0.000
413.54	-0.000
413.75	-0.000
413.95	-0.000
414.16	-0.000
414.37	-0.000
414.57	-0.000
414.78	-0.000
414.98	-0.000
415.19	-0.000
415.39	-0.000
415.60	-0.000
415.80	-0.000
416.01	-0.000
416.21	-0.000
416.42	-0.000
416.62	-0.000
416.83	-0.001
417.03	-0.001
417.24	-0.000
417.44	-0.000
417.65	-0.000
417.86	-0.000
418.06	-0.000
418.27	-0.000
418.47	-0.000
418.68	-0.000
418.88	-0.000
419.09	-0.000
419.29	-0.000
419.50	-0.000
419.70	-0.000
419.91	-0.000
420.11	-0.001
420.32	-0.001
420.52	-0.000
420.73	-0.001
420.93	-0.001
421.14	-0.001
421.34	-0.001
421.55	-0.001
421.75	-0.001
421.96	-0.001
422.16	-0.001
422.37	-0.001
422.57	-0.001
422.78	-0.001
422.98	-0.001
423.19	-0.001
423.39	-0.001
423.60	-0.001
423.80	-0.000
424.01	-0.000
424.21	-0.000
424.42	-0.000
424.62	-0.000
424.83	-0.000
425.03	-0.000
425.23	-0.000
425.44	-0.001
425.64	-0.001
425.85	-0.001
426.05	-0.001
426.26	-0.001
426.46	-0.001
426.67	-0.001
426.87	-0.001
427.08	-0.001
427.28	-0.001
427.49	-0.001
427.69	-0.001
427.90	-0.001
428.10	-0.001
428.31	-0.001
428.51	-0.001
428.71	-0.001
428.92	-0.001
429.12	-0.001
429.33	-0.001
429.53	-0.001
429.74	-0.001
429.94	-0.001
430.15	-0.001
430.35	-0.001
430.56	-0.001
430.76	-0.001
430.96	-0.001
431.17	-0.001
431.37	-0.001
431.58	-0.001
431.78	-0.001
431.99	-0.001
432.19	-0.001
432.40	-0.000
432.60	-0.001
432.80	-0.000
433.01	-0.000
433.21	-0.001
433.42	-0.001
433.62	-0.001
433.83	-0.001
434.03	-0.001
434.23	-0.001
434.44	-0.000
434.64	-0.000
434.85	-0.000
435.05	-0.001
435.26	-0.001
435.46	-0.001
435.66	-0.000
435.87	-0.001
436.07	-0.001
436.28	-0.000
436.48	-0.000
436.69	-0.001
436.89	-0.001
437.09	-0.001
437.30	-0.001
437.50	-0.001
437.71	-0.001
437.91	-0.001
438.11	-0.001
438.32	-0.000
438.52	-0.000
438.73	-0.000
438.93	-0.000
439.13	-0.000
439.34	-0.000
439.54	-0.000
439.75	-0.000
439.95	-0.000
440.15	-0.000
440.36	-0.000
440.56	-0.000
440.77	-0.000
440.97	-0.000
441.17	-0.000
441.38	-0.000
441.58	-0.000
441.79	-0.000
441.99	-0.000
442.19	-0.000
442.40	-0.000
442.60	-0.000
442.81	-0.000
443.01	-0.000
443.21	-0.000
443.42	-0.001
443.62	-0.001
443.82	-0.001
444.03	-0.001
444.23	-0.001
444.44	-0.001
444.64	-0.001
444.84	-0.001
445.05	-0.001
445.25	-0.001
445.45	-0.001
445.66	-0.001
445.86	-0.001
446.06	-0.001
446.27	-0.001
446.47	-0.001
446.68	-0.001
446.88	-0.001
447.08	-0.001
447.29	-0.001
447.49	-0.000
447.69	-0.000
447.90	-0.000
448.10	-0.001
448.30	-0.001
448.51	-0.000
448.71	-0.000
448.91	-0.001
449.12	-0.001
449.32	-0.001
449.52	-0.001
449.73	-0.001
449.93	-0.001
450.14	-0.001
450.34	-0.000
