SpectraSuite Data File
++++++++++++++++++++++++++++++++++++
Date: Mon Jun 15 07:31:10 PDT 2015
User: introlabs
Dark Spectrum Present: Yes
Reference Spectrum Present: Yes
Number of Sampled Component Spectra: 1
Spectrometers: USB4H08886
Integration Time (usec): 44366 (USB4H08886)
Spectra Averaged: 20 (USB4H08886)
Boxcar Smoothing: 5 (USB4H08886)
Correct for Electrical Dark: Yes (USB4H08886)
Strobe/Lamp Enabled: No (USB4H08886)
Correct for Detector Non-linearity: Yes (USB4H08886)
Correct for Stray Light: Yes (USB4H08886)
Number of Pixels in Processed Spectrum: 3648
>>>>>Begin Processed Spectral Data<<<<<
178.14	1.239
178.36	1.239
178.57	1.239
178.79	-0.000
179.01	-1.244
179.22	-0.000
179.44	-0.000
179.65	-0.421
179.87	-0.065
180.08	0.097
180.30	-0.095
180.52	-0.188
180.73	-0.235
180.95	-0.108
181.16	-0.069
181.38	-0.048
181.59	-0.042
181.81	-0.023
182.03	-0.006
182.24	0.002
182.46	-0.003
182.67	0.003
182.89	0.002
183.10	0.001
183.32	-0.008
183.54	-0.010
183.75	-0.003
183.97	0.006
184.18	-0.001
184.40	-0.004
184.61	-0.003
184.83	0.011
185.04	0.008
185.26	0.010
185.48	0.016
185.69	0.028
185.91	0.018
186.12	0.015
186.34	0.017
186.55	0.012
186.77	0.006
186.98	-0.004
187.20	-0.011
187.42	-0.004
187.63	-0.001
187.85	-0.002
188.06	-0.001
188.28	0.010
188.49	0.011
188.71	0.004
188.92	0.007
189.14	0.010
189.36	0.016
189.57	0.014
189.79	0.005
190.00	-0.000
190.22	-0.005
190.43	-0.006
190.65	-0.012
190.86	-0.005
191.08	-0.004
191.29	0.001
191.51	-0.004
191.72	-0.005
191.94	-0.003
192.16	0.003
192.37	0.010
192.59	0.009
192.80	0.011
193.02	0.019
193.23	0.024
193.45	0.016
193.66	0.015
193.88	0.025
194.09	0.023
194.31	0.026
194.52	0.023
194.74	0.012
194.95	0.015
195.17	0.013
195.38	0.004
195.60	-0.014
195.81	-0.002
196.03	-0.010
196.25	-0.004
196.46	-0.007
196.68	-0.005
196.89	0.001
197.11	0.011
197.32	0.011
197.54	0.003
197.75	0.016
197.97	0.021
198.18	0.017
198.40	0.026
198.61	0.010
198.83	0.008
199.04	0.005
199.26	-0.009
199.47	-0.016
199.69	-0.005
199.90	0.013
200.12	0.010
200.33	0.014
200.55	0.011
200.76	0.005
200.98	0.003
201.19	0.004
201.41	0.000
201.62	0.008
201.84	0.015
202.05	0.006
202.27	-0.001
202.48	0.001
202.70	0.000
202.91	0.005
203.13	0.004
203.34	0.002
203.56	0.009
203.77	0.011
203.99	-0.001
204.20	-0.009
204.42	-0.002
204.63	-0.000
204.85	-0.004
205.06	-0.004
205.28	-0.008
205.49	-0.003
205.71	0.006
205.92	0.001
206.14	0.001
206.35	0.014
206.56	0.025
206.78	0.020
206.99	0.016
207.21	0.020
207.42	0.017
207.64	0.024
207.85	0.023
208.07	0.026
208.28	0.036
208.50	0.044
208.71	0.046
208.93	0.040
209.14	0.040
209.36	0.039
209.57	0.041
209.79	0.044
210.00	0.040
210.22	0.045
210.43	0.043
210.64	0.036
210.86	0.029
211.07	0.027
211.29	0.027
211.50	0.025
211.72	0.016
211.93	0.007
212.15	0.004
212.36	-0.002
212.58	-0.007
212.79	-0.005
213.01	-0.009
213.22	-0.006
213.43	-0.012
213.65	-0.008
213.86	-0.008
214.08	-0.000
214.29	0.003
214.51	0.006
214.72	0.008
214.94	0.006
215.15	0.012
215.36	0.012
215.58	0.003
215.79	0.006
216.01	0.003
216.22	0.007
216.44	0.003
216.65	0.001
216.87	0.005
217.08	0.006
217.29	0.012
217.51	0.005
217.72	0.003
217.94	0.015
218.15	0.022
218.37	0.017
218.58	0.016
218.80	0.026
219.01	0.023
219.22	0.017
219.44	0.021
219.65	0.018
219.87	0.019
220.08	0.017
220.30	0.008
220.51	0.004
220.72	0.002
220.94	-0.003
221.15	-0.009
221.37	-0.005
221.58	0.000
221.79	-0.002
222.01	-0.005
222.22	-0.010
222.44	-0.005
222.65	-0.004
222.87	-0.006
223.08	-0.001
223.29	-0.000
223.51	-0.001
223.72	-0.001
223.94	-0.004
224.15	-0.007
224.36	-0.003
224.58	-0.003
224.79	0.002
225.01	-0.003
225.22	0.001
225.44	-0.001
225.65	0.005
225.86	0.009
226.08	0.010
226.29	0.010
226.51	0.012
226.72	0.015
226.93	0.015
227.15	0.009
227.36	0.012
227.58	0.011
227.79	0.019
228.00	0.015
228.22	0.012
228.43	0.008
228.65	0.010
228.86	0.010
229.07	0.009
229.29	0.011
229.50	0.010
229.72	0.012
229.93	0.007
230.14	0.006
230.36	0.005
230.57	0.007
230.78	0.007
231.00	0.006
231.21	0.004
231.43	0.004
231.64	0.005
231.85	0.005
232.07	0.004
232.28	0.008
232.50	0.005
232.71	0.005
232.92	0.006
233.14	0.006
233.35	0.007
233.56	0.009
233.78	0.008
233.99	0.007
234.21	0.008
234.42	0.011
234.63	0.009
234.85	0.010
235.06	0.009
235.27	0.008
235.49	0.011
235.70	0.010
235.91	0.009
236.13	0.010
236.34	0.009
236.56	0.008
236.77	0.007
236.98	0.008
237.20	0.008
237.41	0.009
237.62	0.010
237.84	0.007
238.05	0.008
238.26	0.007
238.48	0.007
238.69	0.008
238.91	0.008
239.12	0.008
239.33	0.006
239.55	0.007
239.76	0.006
239.97	0.007
240.19	0.008
240.40	0.008
240.61	0.008
240.83	0.007
241.04	0.007
241.25	0.007
241.47	0.008
241.68	0.010
241.89	0.010
242.11	0.010
242.32	0.010
242.53	0.010
242.75	0.011
242.96	0.011
243.17	0.012
243.39	0.012
243.60	0.013
243.81	0.012
244.03	0.011
244.24	0.011
244.45	0.012
244.67	0.012
244.88	0.013
245.09	0.013
245.31	0.013
245.52	0.013
245.73	0.013
245.95	0.013
246.16	0.014
246.37	0.014
246.59	0.015
246.80	0.015
247.01	0.015
247.23	0.014
247.44	0.014
247.65	0.014
247.87	0.014
248.08	0.014
248.29	0.014
248.51	0.014
248.72	0.014
248.93	0.013
249.15	0.014
249.36	0.014
249.57	0.013
249.78	0.013
250.00	0.013
250.21	0.013
250.42	0.013
250.64	0.013
250.85	0.013
251.06	0.013
251.28	0.013
251.49	0.013
251.70	0.012
251.92	0.013
252.13	0.013
252.34	0.013
252.55	0.013
252.77	0.013
252.98	0.013
253.19	0.013
253.41	0.013
253.62	0.013
253.83	0.013
254.05	0.014
254.26	0.013
254.47	0.013
254.68	0.013
254.90	0.013
255.11	0.014
255.32	0.014
255.54	0.014
255.75	0.014
255.96	0.014
256.17	0.014
256.39	0.014
256.60	0.014
256.81	0.014
257.03	0.014
257.24	0.014
257.45	0.014
257.66	0.014
257.88	0.013
258.09	0.013
258.30	0.013
258.51	0.013
258.73	0.013
258.94	0.013
259.15	0.012
259.37	0.012
259.58	0.012
259.79	0.012
260.00	0.012
260.22	0.012
260.43	0.012
260.64	0.012
260.85	0.012
261.07	0.012
261.28	0.012
261.49	0.012
261.71	0.012
261.92	0.012
262.13	0.012
262.34	0.012
262.56	0.012
262.77	0.012
262.98	0.012
263.19	0.012
263.41	0.012
263.62	0.011
263.83	0.011
264.04	0.011
264.26	0.011
264.47	0.011
264.68	0.011
264.89	0.011
265.11	0.011
265.32	0.011
265.53	0.011
265.74	0.011
265.96	0.011
266.17	0.011
266.38	0.011
266.59	0.011
266.81	0.011
267.02	0.011
267.23	0.011
267.44	0.010
267.65	0.010
267.87	0.010
268.08	0.010
268.29	0.010
268.50	0.010
268.72	0.010
268.93	0.010
269.14	0.010
269.35	0.010
269.57	0.010
269.78	0.010
269.99	0.010
270.20	0.010
270.41	0.010
270.63	0.009
270.84	0.009
271.05	0.009
271.26	0.009
271.48	0.009
271.69	0.009
271.90	0.008
272.11	0.008
272.32	0.008
272.54	0.008
272.75	0.008
272.96	0.008
273.17	0.008
273.39	0.008
273.60	0.008
273.81	0.008
274.02	0.008
274.23	0.009
274.45	0.009
274.66	0.009
274.87	0.008
275.08	0.008
275.29	0.008
275.51	0.008
275.72	0.007
275.93	0.007
276.14	0.008
276.35	0.008
276.57	0.007
276.78	0.007
276.99	0.007
277.20	0.007
277.41	0.007
277.63	0.007
277.84	0.007
278.05	0.007
278.26	0.007
278.47	0.007
278.69	0.007
278.90	0.007
279.11	0.007
279.32	0.008
279.53	0.008
279.74	0.008
279.96	0.007
280.17	0.008
280.38	0.008
280.59	0.008
280.80	0.008
281.02	0.008
281.23	0.008
281.44	0.008
281.65	0.008
281.86	0.008
282.07	0.008
282.29	0.008
282.50	0.008
282.71	0.008
282.92	0.008
283.13	0.008
283.35	0.008
283.56	0.007
283.77	0.007
283.98	0.007
284.19	0.008
284.40	0.008
284.62	0.008
284.83	0.008
285.04	0.008
285.25	0.008
285.46	0.008
285.67	0.008
285.88	0.009
286.10	0.009
286.31	0.009
286.52	0.009
286.73	0.009
286.94	0.009
287.15	0.009
287.37	0.010
287.58	0.010
287.79	0.010
288.00	0.010
288.21	0.010
288.42	0.010
288.63	0.010
288.85	0.010
289.06	0.010
289.27	0.010
289.48	0.010
289.69	0.011
289.90	0.011
290.11	0.011
290.33	0.011
290.54	0.011
290.75	0.011
290.96	0.011
291.17	0.011
291.38	0.011
291.59	0.011
291.81	0.011
292.02	0.011
292.23	0.011
292.44	0.011
292.65	0.011
292.86	0.011
293.07	0.011
293.28	0.011
293.50	0.011
293.71	0.011
293.92	0.011
294.13	0.011
294.34	0.011
294.55	0.011
294.76	0.011
294.97	0.011
295.19	0.011
295.40	0.011
295.61	0.011
295.82	0.011
296.03	0.011
296.24	0.011
296.45	0.011
296.66	0.011
296.87	0.011
297.09	0.011
297.30	0.011
297.51	0.011
297.72	0.011
297.93	0.011
298.14	0.011
298.35	0.011
298.56	0.011
298.77	0.011
298.99	0.011
299.20	0.011
299.41	0.011
299.62	0.010
299.83	0.010
300.04	0.010
300.25	0.010
300.46	0.010
300.67	0.010
300.88	0.010
301.10	0.010
301.31	0.010
301.52	0.010
301.73	0.010
301.94	0.010
302.15	0.010
302.36	0.010
302.57	0.010
302.78	0.010
302.99	0.010
303.20	0.010
303.41	0.010
303.63	0.010
303.84	0.010
304.05	0.010
304.26	0.010
304.47	0.010
304.68	0.010
304.89	0.010
305.10	0.010
305.31	0.010
305.52	0.010
305.73	0.010
305.94	0.010
306.15	0.010
306.37	0.010
306.58	0.010
306.79	0.010
307.00	0.010
307.21	0.010
307.42	0.010
307.63	0.010
307.84	0.010
308.05	0.010
308.26	0.010
308.47	0.010
308.68	0.010
308.89	0.010
309.10	0.010
309.31	0.010
309.52	0.010
309.73	0.010
309.95	0.010
310.16	0.010
310.37	0.010
310.58	0.010
310.79	0.010
311.00	0.009
311.21	0.009
311.42	0.010
311.63	0.010
311.84	0.010
312.05	0.009
312.26	0.009
312.47	0.010
312.68	0.010
312.89	0.010
313.10	0.010
313.31	0.010
313.52	0.010
313.73	0.010
313.94	0.010
314.15	0.010
314.36	0.010
314.57	0.010
314.78	0.010
314.99	0.010
315.21	0.010
315.42	0.010
315.63	0.010
315.84	0.010
316.05	0.010
316.26	0.010
316.47	0.010
316.68	0.010
316.89	0.010
317.10	0.009
317.31	0.009
317.52	0.009
317.73	0.009
317.94	0.010
318.15	0.010
318.36	0.010
318.57	0.010
318.78	0.010
318.99	0.010
319.20	0.010
319.41	0.010
319.62	0.010
319.83	0.010
320.04	0.010
320.25	0.010
320.46	0.009
320.67	0.009
320.88	0.009
321.09	0.009
321.30	0.009
321.51	0.009
321.72	0.009
321.93	0.009
322.14	0.009
322.35	0.009
322.56	0.009
322.77	0.009
322.98	0.009
323.19	0.009
323.40	0.009
323.61	0.009
323.82	0.009
324.03	0.009
324.24	0.009
324.45	0.009
324.66	0.009
324.87	0.009
325.08	0.009
325.29	0.009
325.50	0.009
325.71	0.009
325.92	0.009
326.13	0.009
326.34	0.009
326.55	0.009
326.76	0.009
326.97	0.009
327.18	0.009
327.39	0.009
327.60	0.009
327.80	0.009
328.01	0.009
328.22	0.009
328.43	0.009
328.64	0.009
328.85	0.009
329.06	0.009
329.27	0.009
329.48	0.009
329.69	0.009
329.90	0.009
330.11	0.009
330.32	0.009
330.53	0.009
330.74	0.009
330.95	0.008
331.16	0.009
331.37	0.009
331.58	0.009
331.79	0.009
332.00	0.009
332.21	0.009
332.42	0.008
332.63	0.008
332.83	0.009
333.04	0.008
333.25	0.009
333.46	0.009
333.67	0.008
333.88	0.008
334.09	0.008
334.30	0.008
334.51	0.008
334.72	0.008
334.93	0.008
335.14	0.008
335.35	0.008
335.56	0.008
335.77	0.008
335.98	0.008
336.18	0.008
336.39	0.008
336.60	0.008
336.81	0.008
337.02	0.008
337.23	0.008
337.44	0.008
337.65	0.008
337.86	0.008
338.07	0.008
338.28	0.008
338.49	0.008
338.70	0.008
338.91	0.008
339.11	0.008
339.32	0.008
339.53	0.008
339.74	0.008
339.95	0.008
340.16	0.008
340.37	0.008
340.58	0.008
340.79	0.008
341.00	0.008
341.21	0.008
341.41	0.008
341.62	0.008
341.83	0.007
342.04	0.007
342.25	0.007
342.46	0.007
342.67	0.007
342.88	0.007
343.09	0.008
343.30	0.008
343.50	0.007
343.71	0.008
343.92	0.008
344.13	0.008
344.34	0.008
344.55	0.008
344.76	0.008
344.97	0.007
345.18	0.007
345.38	0.007
345.59	0.007
345.80	0.007
346.01	0.007
346.22	0.007
346.43	0.007
346.64	0.007
346.85	0.007
347.06	0.007
347.26	0.007
347.47	0.007
347.68	0.007
347.89	0.007
348.10	0.007
348.31	0.007
348.52	0.007
348.73	0.007
348.93	0.007
349.14	0.006
349.35	0.006
349.56	0.006
349.77	0.006
349.98	0.006
350.19	0.007
350.39	0.007
350.60	0.007
350.81	0.007
351.02	0.007
351.23	0.007
351.44	0.007
351.65	0.007
351.86	0.007
352.06	0.007
352.27	0.007
352.48	0.007
352.69	0.007
352.90	0.007
353.11	0.007
353.31	0.007
353.52	0.006
353.73	0.007
353.94	0.006
354.15	0.006
354.36	0.006
354.57	0.006
354.77	0.006
354.98	0.006
355.19	0.006
355.40	0.007
355.61	0.007
355.82	0.007
356.02	0.007
356.23	0.006
356.44	0.006
356.65	0.006
356.86	0.006
357.07	0.006
357.27	0.006
357.48	0.006
357.69	0.006
357.90	0.006
358.11	0.006
358.32	0.006
358.52	0.006
358.73	0.006
358.94	0.006
359.15	0.006
359.36	0.006
359.56	0.006
359.77	0.006
359.98	0.006
360.19	0.006
360.40	0.006
360.61	0.006
360.81	0.006
361.02	0.006
361.23	0.006
361.44	0.006
361.65	0.006
361.85	0.006
362.06	0.006
362.27	0.006
362.48	0.006
362.69	0.006
362.89	0.006
363.10	0.006
363.31	0.006
363.52	0.006
363.73	0.006
363.93	0.006
364.14	0.006
364.35	0.006
364.56	0.006
364.77	0.006
364.97	0.006
365.18	0.006
365.39	0.006
365.60	0.006
365.81	0.006
366.01	0.006
366.22	0.006
366.43	0.006
366.64	0.006
366.84	0.006
367.05	0.006
367.26	0.006
367.47	0.006
367.68	0.006
367.88	0.006
368.09	0.006
368.30	0.006
368.51	0.006
368.71	0.006
368.92	0.006
369.13	0.006
369.34	0.006
369.55	0.006
369.75	0.006
369.96	0.006
370.17	0.006
370.38	0.006
370.58	0.006
370.79	0.006
371.00	0.006
371.21	0.006
371.41	0.006
371.62	0.006
371.83	0.006
372.04	0.006
372.24	0.006
372.45	0.006
372.66	0.006
372.87	0.006
373.07	0.006
373.28	0.006
373.49	0.006
373.70	0.006
373.90	0.006
374.11	0.006
374.32	0.006
374.53	0.005
374.73	0.006
374.94	0.005
375.15	0.005
375.36	0.006
375.56	0.005
375.77	0.005
375.98	0.005
376.19	0.005
376.39	0.005
376.60	0.005
376.81	0.005
377.02	0.005
377.22	0.005
377.43	0.005
377.64	0.005
377.84	0.005
378.05	0.005
378.26	0.005
378.47	0.005
378.67	0.005
378.88	0.005
379.09	0.005
379.30	0.005
379.50	0.005
379.71	0.005
379.92	0.005
380.12	0.005
380.33	0.005
380.54	0.005
380.75	0.005
380.95	0.005
381.16	0.005
381.37	0.005
381.57	0.005
381.78	0.005
381.99	0.005
382.20	0.005
382.40	0.005
382.61	0.005
382.82	0.005
383.02	0.005
383.23	0.005
383.44	0.005
383.64	0.005
383.85	0.005
384.06	0.005
384.27	0.005
384.47	0.005
384.68	0.005
384.89	0.005
385.09	0.005
385.30	0.005
385.51	0.005
385.71	0.005
385.92	0.005
386.13	0.005
386.33	0.005
386.54	0.005
386.75	0.005
386.95	0.005
387.16	0.005
387.37	0.004
387.58	0.005
387.78	0.005
387.99	0.005
388.20	0.005
388.40	0.005
388.61	0.005
388.82	0.005
389.02	0.005
389.23	0.005
389.44	0.005
389.64	0.005
389.85	0.005
390.06	0.005
390.26	0.005
390.47	0.005
390.68	0.005
390.88	0.005
391.09	0.005
391.30	0.005
391.50	0.005
391.71	0.005
391.92	0.005
392.12	0.005
392.33	0.005
392.53	0.005
392.74	0.005
392.95	0.005
393.15	0.005
393.36	0.005
393.57	0.005
393.77	0.005
393.98	0.005
394.19	0.005
394.39	0.005
394.60	0.005
394.81	0.005
395.01	0.005
395.22	0.005
395.43	0.005
395.63	0.005
395.84	0.004
396.04	0.004
396.25	0.004
396.46	0.004
396.66	0.004
396.87	0.004
397.08	0.004
397.28	0.004
397.49	0.004
397.69	0.004
397.90	0.004
398.11	0.004
398.31	0.004
398.52	0.004
398.73	0.004
398.93	0.004
399.14	0.004
399.34	0.004
399.55	0.004
399.76	0.004
399.96	0.004
400.17	0.004
400.37	0.004
400.58	0.004
400.79	0.004
400.99	0.004
401.20	0.004
401.41	0.004
401.61	0.004
401.82	0.004
402.02	0.005
402.23	0.004
402.44	0.004
402.64	0.004
402.85	0.004
403.05	0.004
403.26	0.004
403.47	0.004
403.67	0.004
403.88	0.004
404.08	0.004
404.29	0.004
404.50	0.004
404.70	0.004
404.91	0.004
405.11	0.004
405.32	0.004
405.52	0.004
405.73	0.004
405.94	0.004
406.14	0.004
406.35	0.004
406.55	0.004
406.76	0.004
406.97	0.004
407.17	0.004
407.38	0.004
407.58	0.004
407.79	0.004
407.99	0.004
408.20	0.004
408.41	0.004
408.61	0.004
408.82	0.004
409.02	0.004
409.23	0.004
409.43	0.004
409.64	0.004
409.84	0.004
410.05	0.004
410.26	0.004
410.46	0.004
410.67	0.004
410.87	0.004
411.08	0.004
411.28	0.004
411.49	0.004
411.69	0.004
411.90	0.004
412.11	0.004
412.31	0.004
412.52	0.004
412.72	0.004
412.93	0.004
413.13	0.004
413.34	0.004
413.54	0.004
413.75	0.004
413.95	0.004
414.16	0.004
414.37	0.004
414.57	0.004
414.78	0.004
414.98	0.004
415.19	0.004
415.39	0.004
415.60	0.004
415.80	0.004
416.01	0.004
416.21	0.004
416.42	0.004
416.62	0.004
416.83	0.004
417.03	0.004
417.24	0.004
417.44	0.004
417.65	0.004
417.86	0.004
418.06	0.004
418.27	0.004
418.47	0.004
418.68	0.004
418.88	0.004
419.09	0.004
419.29	0.004
419.50	0.004
419.70	0.004
419.91	0.004
420.11	0.004
420.32	0.004
420.52	0.004
420.73	0.004
420.93	0.004
421.14	0.004
421.34	0.004
421.55	0.004
421.75	0.004
421.96	0.004
422.16	0.004
422.37	0.004
422.57	0.004
422.78	0.004
422.98	0.004
423.19	0.003
423.39	0.003
423.60	0.003
423.80	0.003
424.01	0.003
424.21	0.003
424.42	0.004
424.62	0.004
424.83	0.004
425.03	0.004
425.23	0.004
425.44	0.004
425.64	0.004
425.85	0.004
426.05	0.004
426.26	0.004
426.46	0.004
426.67	0.004
426.87	0.004
427.08	0.004
427.28	0.004
427.49	0.004
427.69	0.004
427.90	0.004
428.10	0.004
428.31	0.004
428.51	0.004
428.71	0.004
428.92	0.004
429.12	0.004
429.33	0.004
429.53	0.004
429.74	0.004
429.94	0.004
430.15	0.004
430.35	0.004
430.56	0.004
430.76	0.004
430.96	0.004
431.17	0.004
431.37	0.004
431.58	0.004
431.78	0.004
431.99	0.004
432.19	0.004
432.40	0.004
432.60	0.004
432.80	0.004
433.01	0.004
433.21	0.004
433.42	0.004
433.62	0.004
433.83	0.004
434.03	0.004
434.23	0.004
434.44	0.004
434.64	0.004
434.85	0.004
435.05	0.004
435.26	0.004
435.46	0.004
435.66	0.004
435.87	0.004
436.07	0.004
436.28	0.003
436.48	0.003
436.69	0.003
436.89	0.003
437.09	0.003
437.30	0.003
437.50	0.003
437.71	0.003
437.91	0.003
438.11	0.003
438.32	0.003
438.52	0.003
438.73	0.003
438.93	0.003
439.13	0.003
439.34	0.003
439.54	0.003
439.75	0.003
439.95	0.003
440.15	0.004
440.36	0.004
440.56	0.004
440.77	0.004
440.97	0.004
441.17	0.004
441.38	0.004
441.58	0.004
441.79	0.003
441.99	0.003
442.19	0.003
442.40	0.003
442.60	0.003
442.81	0.003
443.01	0.003
443.21	0.003
443.42	0.003
443.62	0.003
443.82	0.003
444.03	0.003
444.23	0.003
444.44	0.003
444.64	0.003
444.84	0.004
445.05	0.004
445.25	0.003
445.45	0.003
445.66	0.003
445.86	0.003
446.06	0.003
446.27	0.003
446.47	0.003
446.68	0.003
446.88	0.003
447.08	0.003
447.29	0.003
447.49	0.003
447.69	0.003
447.90	0.003
448.10	0.003
448.30	0.003
448.51	0.003
448.71	0.003
448.91	0.003
449.12	0.003
449.32	0.003
449.52	0.003
449.73	0.003
449.93	0.003
450.14	0.003
450.34	0.003
450.54	0.003
450.75	0.003
450.95	0.003
451.15	0.003
451.36	0.003
451.56	0.003
451.76	0.003
451.97	0.003
452.17	0.003
452.37	0.003
452.58	0.003
452.78	0.003
452.98	0.003
453.19	0.003
453.39	0.003
453.59	0.003
453.79	0.003
454.00	0.003
454.20	0.003
454.40	0.003
454.61	0.003
454.81	0.003
455.01	0.003
455.22	0.003
455.42	0.003
455.62	0.003
455.83	0.003
456.03	0.003
456.23	0.003
456.44	0.003
456.64	0.003
456.84	0.003
457.04	0.003
457.25	0.003
457.45	0.003
457.65	0.003
457.86	0.003
458.06	0.003
458.26	0.003
458.47	0.003
458.67	0.003
458.87	0.003
459.07	0.003
459.28	0.003
459.48	0.003
459.68	0.003
459.89	0.003
460.09	0.003
460.29	0.003
460.49	0.003
460.70	0.003
460.90	0.003
461.10	0.003
461.31	0.003
461.51	0.003
461.71	0.003
461.91	0.003
462.12	0.003
462.32	0.003
462.52	0.004
462.72	0.003
462.93	0.003
463.13	0.003
463.33	0.003
463.53	0.003
463.74	0.003
463.94	0.003
464.14	0.003
464.35	0.003
464.55	0.003
464.75	0.003
464.95	0.003
465.16	0.003
465.36	0.003
465.56	0.003
465.76	0.003
465.97	0.003
466.17	0.003
466.37	0.003
466.57	0.003
