SpectraSuite Data File
++++++++++++++++++++++++++++++++++++
Date: Mon Jun 15 09:43:01 PDT 2015
User: introlabs
Dark Spectrum Present: Yes
Reference Spectrum Present: Yes
Number of Sampled Component Spectra: 1
Spectrometers: USB4H08886
Integration Time (usec): 44366 (USB4H08886)
Spectra Averaged: 20 (USB4H08886)
Boxcar Smoothing: 5 (USB4H08886)
Correct for Electrical Dark: Yes (USB4H08886)
Strobe/Lamp Enabled: No (USB4H08886)
Correct for Detector Non-linearity: Yes (USB4H08886)
Correct for Stray Light: Yes (USB4H08886)
Number of Pixels in Processed Spectrum: 3648
>>>>>Begin Processed Spectral Data<<<<<
178.14	0.658
178.36	0.658
178.57	0.658
178.79	1.589
179.01	-1.204
179.22	0.056
179.44	-0.444
179.65	-0.000
179.87	-0.000
180.08	1.187
180.30	0.523
180.52	0.116
180.73	0.056
180.95	0.023
181.16	0.010
181.38	-0.022
181.59	0.010
181.81	-0.009
182.03	0.008
182.24	0.012
182.46	0.007
182.67	0.005
182.89	0.009
183.10	0.016
183.32	0.012
183.54	0.005
183.75	0.013
183.97	0.017
184.18	0.015
184.40	0.007
184.61	0.011
184.83	0.009
185.04	0.011
185.26	0.010
185.48	-0.002
185.69	-0.008
185.91	-0.005
186.12	-0.014
186.34	-0.008
186.55	-0.013
186.77	0.002
186.98	-0.002
187.20	-0.012
187.42	-0.005
187.63	-0.001
187.85	0.001
188.06	0.015
188.28	0.018
188.49	0.025
188.71	0.015
188.92	0.027
189.14	0.012
189.36	0.019
189.57	0.032
189.79	0.016
190.00	0.006
190.22	0.012
190.43	0.009
190.65	0.003
190.86	0.011
191.08	0.011
191.29	0.000
191.51	0.006
191.72	-0.004
191.94	-0.006
192.16	0.002
192.37	0.004
192.59	0.003
192.80	0.002
193.02	0.012
193.23	0.007
193.45	0.004
193.66	0.011
193.88	0.008
194.09	0.012
194.31	0.005
194.52	-0.003
194.74	-0.007
194.95	-0.008
195.17	-0.011
195.38	-0.023
195.60	-0.030
195.81	-0.019
196.03	-0.021
196.25	-0.012
196.46	-0.009
196.68	0.001
196.89	0.006
197.11	0.019
197.32	0.021
197.54	0.013
197.75	0.024
197.97	0.030
198.18	0.019
198.40	0.025
198.61	0.014
198.83	0.009
199.04	0.006
199.26	0.002
199.47	-0.008
199.69	-0.003
199.90	0.017
200.12	0.015
200.33	0.012
200.55	0.015
200.76	0.005
200.98	0.007
201.19	0.006
201.41	0.002
201.62	0.006
201.84	0.008
202.05	0.007
202.27	0.003
202.48	0.002
202.70	0.007
202.91	0.002
203.13	0.001
203.34	-0.003
203.56	0.002
203.77	0.007
203.99	0.004
204.20	-0.001
204.42	-0.008
204.63	-0.013
204.85	-0.014
205.06	-0.023
205.28	-0.023
205.49	-0.016
205.71	-0.010
205.92	-0.015
206.14	-0.017
206.35	-0.005
206.56	0.003
206.78	0.006
206.99	0.010
207.21	0.015
207.42	0.021
207.64	0.020
207.85	0.021
208.07	0.029
208.28	0.033
208.50	0.034
208.71	0.024
208.93	0.028
209.14	0.035
209.36	0.030
209.57	0.029
209.79	0.030
210.00	0.032
210.22	0.030
210.43	0.022
210.64	0.023
210.86	0.018
211.07	0.018
211.29	0.010
211.50	0.002
211.72	-0.004
211.93	-0.008
212.15	-0.008
212.36	-0.013
212.58	-0.014
212.79	-0.015
213.01	-0.026
213.22	-0.025
213.43	-0.025
213.65	-0.023
213.86	-0.027
214.08	-0.018
214.29	-0.021
214.51	-0.020
214.72	-0.017
214.94	-0.018
215.15	-0.014
215.36	-0.008
215.58	-0.009
215.79	-0.012
216.01	-0.011
216.22	-0.003
216.44	-0.010
216.65	-0.011
216.87	-0.012
217.08	-0.009
217.29	-0.006
217.51	-0.006
217.72	-0.007
217.94	-0.005
218.15	-0.002
218.37	-0.005
218.58	-0.014
218.80	-0.009
219.01	-0.011
219.22	-0.011
219.44	-0.012
219.65	-0.009
219.87	-0.007
220.08	-0.010
220.30	-0.012
220.51	-0.015
220.72	-0.016
220.94	-0.015
221.15	-0.019
221.37	-0.019
221.58	-0.022
221.79	-0.019
222.01	-0.034
222.22	-0.047
222.44	-0.045
222.65	-0.047
222.87	-0.048
223.08	-0.048
223.29	-0.045
223.51	-0.045
223.72	-0.043
223.94	-0.044
224.15	-0.047
224.36	-0.036
224.58	-0.033
224.79	-0.031
225.01	-0.033
225.22	-0.034
225.44	-0.033
225.65	-0.035
225.86	-0.029
226.08	-0.028
226.29	-0.030
226.51	-0.027
226.72	-0.033
226.93	-0.030
227.15	-0.037
227.36	-0.036
227.58	-0.038
227.79	-0.036
228.00	-0.036
228.22	-0.046
228.43	-0.048
228.65	-0.045
228.86	-0.048
229.07	-0.046
229.29	-0.049
229.50	-0.049
229.72	-0.049
229.93	-0.048
230.14	-0.051
230.36	-0.053
230.57	-0.048
230.78	-0.049
231.00	-0.052
231.21	-0.056
231.43	-0.056
231.64	-0.056
231.85	-0.054
232.07	-0.055
232.28	-0.055
232.50	-0.056
232.71	-0.057
232.92	-0.059
233.14	-0.060
233.35	-0.059
233.56	-0.058
233.78	-0.060
233.99	-0.060
234.21	-0.063
234.42	-0.063
234.63	-0.064
234.85	-0.064
235.06	-0.064
235.27	-0.063
235.49	-0.061
235.70	-0.062
235.91	-0.064
236.13	-0.062
236.34	-0.063
236.56	-0.061
236.77	-0.061
236.98	-0.061
237.20	-0.061
237.41	-0.061
237.62	-0.060
237.84	-0.061
238.05	-0.060
238.26	-0.059
238.48	-0.060
238.69	-0.059
238.91	-0.059
239.12	-0.059
239.33	-0.059
239.55	-0.057
239.76	-0.057
239.97	-0.056
240.19	-0.055
240.40	-0.055
240.61	-0.054
240.83	-0.053
241.04	-0.052
241.25	-0.051
241.47	-0.050
241.68	-0.049
241.89	-0.049
242.11	-0.048
242.32	-0.047
242.53	-0.047
242.75	-0.046
242.96	-0.044
243.17	-0.044
243.39	-0.044
243.60	-0.044
243.81	-0.043
244.03	-0.043
244.24	-0.043
244.45	-0.042
244.67	-0.043
244.88	-0.041
245.09	-0.041
245.31	-0.041
245.52	-0.040
245.73	-0.040
245.95	-0.039
246.16	-0.039
246.37	-0.039
246.59	-0.038
246.80	-0.038
247.01	-0.037
247.23	-0.037
247.44	-0.037
247.65	-0.037
247.87	-0.037
248.08	-0.037
248.29	-0.037
248.51	-0.037
248.72	-0.036
248.93	-0.036
249.15	-0.036
249.36	-0.036
249.57	-0.036
249.78	-0.036
250.00	-0.035
250.21	-0.035
250.42	-0.034
250.64	-0.034
250.85	-0.034
251.06	-0.034
251.28	-0.033
251.49	-0.033
251.70	-0.033
251.92	-0.033
252.13	-0.032
252.34	-0.032
252.55	-0.032
252.77	-0.033
252.98	-0.032
253.19	-0.032
253.41	-0.032
253.62	-0.032
253.83	-0.031
254.05	-0.031
254.26	-0.032
254.47	-0.032
254.68	-0.032
254.90	-0.031
255.11	-0.031
255.32	-0.031
255.54	-0.031
255.75	-0.031
255.96	-0.031
256.17	-0.031
256.39	-0.031
256.60	-0.031
256.81	-0.031
257.03	-0.031
257.24	-0.031
257.45	-0.031
257.66	-0.031
257.88	-0.031
258.09	-0.032
258.30	-0.032
258.51	-0.032
258.73	-0.032
258.94	-0.032
259.15	-0.032
259.37	-0.033
259.58	-0.033
259.79	-0.033
260.00	-0.033
260.22	-0.033
260.43	-0.033
260.64	-0.034
260.85	-0.034
261.07	-0.034
261.28	-0.034
261.49	-0.034
261.71	-0.034
261.92	-0.034
262.13	-0.034
262.34	-0.034
262.56	-0.035
262.77	-0.034
262.98	-0.035
263.19	-0.035
263.41	-0.035
263.62	-0.035
263.83	-0.036
264.04	-0.036
264.26	-0.036
264.47	-0.036
264.68	-0.037
264.89	-0.037
265.11	-0.037
265.32	-0.037
265.53	-0.037
265.74	-0.037
265.96	-0.037
266.17	-0.037
266.38	-0.037
266.59	-0.037
266.81	-0.037
267.02	-0.038
267.23	-0.038
267.44	-0.039
267.65	-0.039
267.87	-0.040
268.08	-0.040
268.29	-0.040
268.50	-0.041
268.72	-0.040
268.93	-0.041
269.14	-0.041
269.35	-0.041
269.57	-0.041
269.78	-0.042
269.99	-0.042
270.20	-0.042
270.41	-0.042
270.63	-0.042
270.84	-0.043
271.05	-0.043
271.26	-0.043
271.48	-0.044
271.69	-0.044
271.90	-0.044
272.11	-0.044
272.32	-0.045
272.54	-0.045
272.75	-0.045
272.96	-0.045
273.17	-0.045
273.39	-0.045
273.60	-0.045
273.81	-0.046
274.02	-0.046
274.23	-0.046
274.45	-0.046
274.66	-0.046
274.87	-0.046
275.08	-0.046
275.29	-0.046
275.51	-0.046
275.72	-0.046
275.93	-0.046
276.14	-0.046
276.35	-0.046
276.57	-0.046
276.78	-0.046
276.99	-0.046
277.20	-0.046
277.41	-0.046
277.63	-0.046
277.84	-0.045
278.05	-0.045
278.26	-0.045
278.47	-0.045
278.69	-0.045
278.90	-0.045
279.11	-0.044
279.32	-0.043
279.53	-0.043
279.74	-0.043
279.96	-0.043
280.17	-0.043
280.38	-0.042
280.59	-0.042
280.80	-0.042
281.02	-0.041
281.23	-0.041
281.44	-0.041
281.65	-0.041
281.86	-0.041
282.07	-0.041
282.29	-0.041
282.50	-0.041
282.71	-0.040
282.92	-0.040
283.13	-0.040
283.35	-0.040
283.56	-0.040
283.77	-0.039
283.98	-0.039
284.19	-0.038
284.40	-0.038
284.62	-0.038
284.83	-0.037
285.04	-0.037
285.25	-0.036
285.46	-0.035
285.67	-0.035
285.88	-0.034
286.10	-0.034
286.31	-0.033
286.52	-0.032
286.73	-0.031
286.94	-0.031
287.15	-0.030
287.37	-0.029
287.58	-0.029
287.79	-0.028
288.00	-0.027
288.21	-0.027
288.42	-0.026
288.63	-0.026
288.85	-0.025
289.06	-0.025
289.27	-0.024
289.48	-0.024
289.69	-0.023
289.90	-0.023
290.11	-0.022
290.33	-0.022
290.54	-0.021
290.75	-0.020
290.96	-0.020
291.17	-0.020
291.38	-0.019
291.59	-0.019
291.81	-0.019
292.02	-0.018
292.23	-0.018
292.44	-0.018
292.65	-0.018
292.86	-0.017
293.07	-0.017
293.28	-0.017
293.50	-0.017
293.71	-0.016
293.92	-0.016
294.13	-0.016
294.34	-0.015
294.55	-0.015
294.76	-0.015
294.97	-0.015
295.19	-0.015
295.40	-0.015
295.61	-0.015
295.82	-0.015
296.03	-0.015
296.24	-0.015
296.45	-0.015
296.66	-0.015
296.87	-0.014
297.09	-0.014
297.30	-0.014
297.51	-0.014
297.72	-0.014
297.93	-0.014
298.14	-0.014
298.35	-0.014
298.56	-0.014
298.77	-0.013
298.99	-0.013
299.20	-0.013
299.41	-0.013
299.62	-0.013
299.83	-0.013
300.04	-0.013
300.25	-0.013
300.46	-0.013
300.67	-0.012
300.88	-0.012
301.10	-0.012
301.31	-0.012
301.52	-0.012
301.73	-0.013
301.94	-0.012
302.15	-0.013
302.36	-0.013
302.57	-0.013
302.78	-0.013
302.99	-0.013
303.20	-0.013
303.41	-0.013
303.63	-0.013
303.84	-0.013
304.05	-0.013
304.26	-0.013
304.47	-0.012
304.68	-0.012
304.89	-0.012
305.10	-0.012
305.31	-0.012
305.52	-0.012
305.73	-0.012
305.94	-0.012
306.15	-0.012
306.37	-0.012
306.58	-0.012
306.79	-0.012
307.00	-0.012
307.21	-0.012
307.42	-0.012
307.63	-0.011
307.84	-0.011
308.05	-0.011
308.26	-0.011
308.47	-0.011
308.68	-0.011
308.89	-0.011
309.10	-0.011
309.31	-0.011
309.52	-0.011
309.73	-0.011
309.95	-0.011
310.16	-0.012
310.37	-0.012
310.58	-0.011
310.79	-0.012
311.00	-0.012
311.21	-0.011
311.42	-0.011
311.63	-0.012
311.84	-0.012
312.05	-0.012
312.26	-0.011
312.47	-0.011
312.68	-0.011
312.89	-0.011
313.10	-0.011
313.31	-0.011
313.52	-0.011
313.73	-0.011
313.94	-0.011
314.15	-0.011
314.36	-0.011
314.57	-0.011
314.78	-0.011
314.99	-0.011
315.21	-0.011
315.42	-0.011
315.63	-0.011
315.84	-0.011
316.05	-0.011
316.26	-0.011
316.47	-0.011
316.68	-0.011
316.89	-0.011
317.10	-0.011
317.31	-0.011
317.52	-0.011
317.73	-0.011
317.94	-0.011
318.15	-0.011
318.36	-0.011
318.57	-0.011
318.78	-0.011
318.99	-0.011
319.20	-0.010
319.41	-0.010
319.62	-0.010
319.83	-0.010
320.04	-0.010
320.25	-0.010
320.46	-0.010
320.67	-0.010
320.88	-0.010
321.09	-0.010
321.30	-0.010
321.51	-0.010
321.72	-0.010
321.93	-0.010
322.14	-0.011
322.35	-0.011
322.56	-0.011
322.77	-0.010
322.98	-0.010
323.19	-0.010
323.40	-0.010
323.61	-0.010
323.82	-0.010
324.03	-0.010
324.24	-0.010
324.45	-0.010
324.66	-0.010
324.87	-0.010
325.08	-0.010
325.29	-0.010
325.50	-0.010
325.71	-0.010
325.92	-0.010
326.13	-0.010
326.34	-0.010
326.55	-0.010
326.76	-0.010
326.97	-0.010
327.18	-0.010
327.39	-0.010
327.60	-0.010
327.80	-0.009
328.01	-0.009
328.22	-0.010
328.43	-0.009
328.64	-0.009
328.85	-0.009
329.06	-0.009
329.27	-0.009
329.48	-0.009
329.69	-0.009
329.90	-0.009
330.11	-0.009
330.32	-0.009
330.53	-0.009
330.74	-0.009
330.95	-0.009
331.16	-0.009
331.37	-0.009
331.58	-0.009
331.79	-0.009
332.00	-0.009
332.21	-0.009
332.42	-0.009
332.63	-0.009
332.83	-0.008
333.04	-0.008
333.25	-0.008
333.46	-0.008
333.67	-0.008
333.88	-0.008
334.09	-0.008
334.30	-0.008
334.51	-0.008
334.72	-0.008
334.93	-0.008
335.14	-0.008
335.35	-0.008
335.56	-0.008
335.77	-0.008
335.98	-0.008
336.18	-0.008
336.39	-0.008
336.60	-0.008
336.81	-0.008
337.02	-0.008
337.23	-0.008
337.44	-0.008
337.65	-0.008
337.86	-0.008
338.07	-0.007
338.28	-0.007
338.49	-0.007
338.70	-0.007
338.91	-0.007
339.11	-0.007
339.32	-0.007
339.53	-0.007
339.74	-0.007
339.95	-0.007
340.16	-0.007
340.37	-0.007
340.58	-0.007
340.79	-0.007
341.00	-0.007
341.21	-0.007
341.41	-0.007
341.62	-0.007
341.83	-0.007
342.04	-0.007
342.25	-0.007
342.46	-0.007
342.67	-0.007
342.88	-0.006
343.09	-0.006
343.30	-0.006
343.50	-0.006
343.71	-0.006
343.92	-0.006
344.13	-0.005
344.34	-0.005
344.55	-0.006
344.76	-0.005
344.97	-0.005
345.18	-0.006
345.38	-0.006
345.59	-0.006
345.80	-0.006
346.01	-0.006
346.22	-0.006
346.43	-0.006
346.64	-0.006
346.85	-0.005
347.06	-0.005
347.26	-0.005
347.47	-0.005
347.68	-0.005
347.89	-0.005
348.10	-0.005
348.31	-0.005
348.52	-0.005
348.73	-0.005
348.93	-0.005
349.14	-0.005
349.35	-0.005
349.56	-0.005
349.77	-0.005
349.98	-0.005
350.19	-0.005
350.39	-0.005
350.60	-0.005
350.81	-0.005
351.02	-0.005
351.23	-0.005
351.44	-0.005
351.65	-0.004
351.86	-0.004
352.06	-0.004
352.27	-0.004
352.48	-0.004
352.69	-0.004
352.90	-0.004
353.11	-0.004
353.31	-0.004
353.52	-0.004
353.73	-0.004
353.94	-0.004
354.15	-0.004
354.36	-0.004
354.57	-0.004
354.77	-0.004
354.98	-0.004
355.19	-0.004
355.40	-0.004
355.61	-0.004
355.82	-0.003
356.02	-0.003
356.23	-0.003
356.44	-0.003
356.65	-0.003
356.86	-0.003
357.07	-0.003
357.27	-0.003
357.48	-0.003
357.69	-0.003
357.90	-0.003
358.11	-0.003
358.32	-0.003
358.52	-0.003
358.73	-0.003
358.94	-0.003
359.15	-0.003
359.36	-0.003
359.56	-0.003
359.77	-0.003
359.98	-0.003
360.19	-0.003
360.40	-0.003
360.61	-0.003
360.81	-0.003
361.02	-0.003
361.23	-0.003
361.44	-0.003
361.65	-0.003
361.85	-0.002
362.06	-0.002
362.27	-0.002
362.48	-0.002
362.69	-0.002
362.89	-0.002
363.10	-0.002
363.31	-0.002
363.52	-0.002
363.73	-0.002
363.93	-0.002
364.14	-0.002
364.35	-0.002
364.56	-0.002
364.77	-0.002
364.97	-0.002
365.18	-0.002
365.39	-0.002
365.60	-0.002
365.81	-0.002
366.01	-0.002
366.22	-0.002
366.43	-0.002
366.64	-0.002
366.84	-0.002
367.05	-0.002
367.26	-0.002
367.47	-0.002
367.68	-0.002
367.88	-0.002
368.09	-0.002
368.30	-0.001
368.51	-0.001
368.71	-0.001
368.92	-0.001
369.13	-0.001
369.34	-0.001
369.55	-0.001
369.75	-0.001
369.96	-0.001
370.17	-0.001
370.38	-0.001
370.58	-0.001
370.79	-0.001
371.00	-0.001
371.21	-0.001
371.41	-0.001
371.62	-0.001
371.83	-0.001
372.04	-0.001
372.24	-0.001
372.45	-0.001
372.66	-0.001
372.87	-0.001
373.07	-0.001
373.28	-0.001
373.49	-0.001
373.70	-0.001
373.90	-0.001
374.11	-0.001
374.32	-0.001
374.53	-0.001
374.73	-0.001
374.94	-0.001
375.15	-0.001
375.36	-0.001
375.56	-0.001
375.77	-0.001
375.98	-0.001
376.19	-0.001
376.39	-0.001
376.60	-0.001
376.81	-0.001
377.02	-0.001
377.22	-0.001
377.43	-0.001
377.64	-0.001
377.84	-0.001
378.05	-0.001
378.26	-0.001
378.47	-0.001
378.67	-0.001
378.88	-0.001
379.09	-0.001
379.30	-0.001
379.50	-0.001
379.71	-0.001
379.92	-0.001
380.12	-0.001
380.33	-0.001
380.54	-0.001
380.75	-0.001
380.95	-0.001
381.16	-0.001
381.37	-0.001
381.57	-0.001
381.78	-0.001
381.99	-0.001
382.20	-0.001
382.40	-0.001
382.61	-0.000
382.82	-0.001
383.02	-0.001
383.23	-0.001
383.44	-0.001
383.64	-0.001
383.85	-0.001
384.06	-0.001
384.27	-0.001
384.47	-0.001
384.68	-0.001
384.89	-0.001
385.09	-0.001
385.30	-0.001
385.51	-0.001
385.71	-0.001
385.92	-0.001
386.13	-0.001
386.33	-0.001
386.54	-0.001
386.75	-0.001
386.95	-0.001
387.16	-0.001
387.37	-0.001
387.58	-0.001
387.78	-0.001
387.99	-0.001
388.20	-0.001
388.40	-0.001
388.61	-0.001
388.82	-0.001
389.02	-0.001
389.23	-0.001
389.44	-0.001
389.64	-0.001
389.85	-0.001
390.06	-0.001
390.26	-0.001
390.47	-0.001
390.68	-0.001
390.88	-0.001
391.09	-0.001
391.30	-0.001
391.50	-0.001
391.71	-0.001
391.92	-0.001
392.12	-0.001
392.33	-0.001
392.53	-0.001
392.74	-0.001
392.95	-0.001
393.15	-0.000
393.36	-0.000
393.57	-0.000
393.77	-0.000
393.98	-0.000
394.19	-0.000
394.39	-0.000
394.60	-0.000
394.81	-0.000
395.01	-0.000
395.22	-0.000
395.43	-0.000
395.63	-0.000
395.84	-0.001
396.04	-0.001
396.25	-0.001
396.46	-0.001
396.66	-0.001
396.87	-0.001
397.08	-0.001
397.28	-0.001
397.49	-0.001
397.69	-0.001
397.90	-0.001
398.11	-0.000
398.31	-0.000
398.52	-0.000
398.73	-0.000
398.93	-0.000
399.14	-0.000
399.34	-0.000
399.55	-0.000
399.76	-0.000
399.96	-0.000
400.17	-0.000
400.37	-0.000
400.58	-0.000
400.79	-0.000
400.99	-0.000
401.20	-0.000
401.41	0.000
401.61	0.000
401.82	0.000
402.02	0.000
402.23	-0.000
402.44	-0.000
402.64	-0.000
402.85	-0.000
403.05	-0.000
403.26	-0.000
403.47	-0.000
403.67	-0.000
403.88	-0.000
404.08	-0.000
404.29	-0.000
404.50	-0.000
404.70	-0.000
404.91	-0.000
405.11	-0.000
405.32	-0.000
405.52	-0.000
405.73	-0.000
405.94	-0.000
406.14	-0.000
406.35	-0.000
406.55	-0.001
406.76	-0.000
406.97	-0.000
407.17	-0.000
407.38	-0.000
407.58	-0.000
407.79	-0.001
407.99	-0.000
408.20	-0.000
408.41	-0.000
408.61	-0.000
408.82	-0.000
409.02	-0.000
409.23	-0.000
409.43	-0.000
409.64	-0.000
409.84	-0.000
410.05	-0.000
410.26	-0.000
410.46	-0.000
410.67	-0.000
410.87	-0.000
411.08	-0.000
411.28	-0.000
411.49	-0.000
411.69	-0.000
411.90	-0.000
412.11	-0.000
412.31	-0.000
412.52	-0.000
412.72	-0.000
412.93	-0.000
413.13	-0.000
413.34	-0.000
413.54	-0.000
413.75	-0.000
413.95	-0.000
414.16	-0.000
414.37	-0.000
414.57	-0.000
414.78	-0.000
414.98	0.000
415.19	0.000
415.39	0.000
415.60	0.000
415.80	-0.000
416.01	-0.000
416.21	-0.000
416.42	-0.000
416.62	-0.000
416.83	-0.000
417.03	-0.000
417.24	-0.001
417.44	-0.000
417.65	-0.001
417.86	-0.001
418.06	-0.001
418.27	-0.001
418.47	-0.001
418.68	-0.001
418.88	-0.001
419.09	-0.001
419.29	-0.001
419.50	-0.001
419.70	-0.001
419.91	-0.001
420.11	-0.001
420.32	-0.001
420.52	-0.001
420.73	-0.001
420.93	-0.001
421.14	-0.001
421.34	-0.001
421.55	-0.001
421.75	-0.001
421.96	-0.001
422.16	-0.001
422.37	-0.001
422.57	-0.001
422.78	-0.001
422.98	-0.001
423.19	-0.000
423.39	-0.000
423.60	-0.000
423.80	-0.000
424.01	0.000
424.21	0.000
424.42	0.000
424.62	0.000
424.83	0.000
425.03	0.000
425.23	0.000
425.44	0.000
425.64	0.000
425.85	0.000
426.05	0.000
426.26	0.000
426.46	0.000
426.67	0.000
426.87	-0.000
427.08	-0.000
427.28	-0.000
427.49	-0.001
427.69	-0.001
427.90	-0.001
428.10	-0.001
428.31	-0.001
428.51	-0.001
428.71	-0.001
428.92	-0.001
429.12	-0.001
429.33	-0.001
429.53	-0.001
429.74	-0.001
429.94	-0.001
430.15	-0.001
430.35	-0.000
430.56	-0.000
430.76	0.000
430.96	0.000
431.17	0.000
431.37	0.000
431.58	0.000
431.78	0.000
431.99	0.001
432.19	0.001
432.40	0.001
432.60	0.001
432.80	0.001
433.01	0.000
433.21	0.000
433.42	0.000
433.62	0.000
433.83	-0.000
434.03	-0.000
434.23	-0.000
434.44	-0.000
434.64	-0.000
434.85	-0.000
435.05	-0.000
435.26	-0.000
435.46	-0.000
435.66	-0.000
435.87	-0.000
436.07	-0.000
436.28	-0.001
436.48	-0.001
436.69	-0.001
436.89	-0.001
437.09	-0.001
437.30	-0.000
437.50	-0.000
437.71	-0.000
437.91	0.000
438.11	0.000
438.32	0.000
438.52	0.000
438.73	0.000
438.93	0.000
439.13	0.000
439.34	0.000
439.54	0.000
439.75	-0.000
439.95	-0.000
440.15	-0.000
440.36	-0.000
440.56	-0.000
440.77	-0.000
440.97	-0.000
441.17	-0.000
441.38	-0.000
441.58	-0.000
441.79	-0.000
441.99	-0.000
442.19	-0.000
442.40	-0.000
442.60	-0.000
442.81	-0.000
443.01	-0.000
443.21	-0.000
443.42	-0.000
443.62	-0.000
443.82	-0.000
444.03	-0.000
444.23	-0.000
444.44	0.000
444.64	-0.000
444.84	-0.000
445.05	-0.000
445.25	-0.000
445.45	-0.000
445.66	-0.000
445.86	0.000
446.06	0.000
446.27	0.000
446.47	0.000
446.68	0.000
446.88	0.000
447.08	0.000
447.29	-0.000
447.49	-0.000
447.69	-0.000
447.90	0.000
448.10	-0.000
448.30	0.000
448.51	0.000
448.71	-0.000
448.91	0.000
449.12	0.000
449.32	0.000
449.52	0.000
449.73	0.000
449.93	0.000
450.14	0.000
450.34	0.000
450.54	0.000
450.75	0.000
450.95	0.000
451.15	0.000
451.36	0.000
451.56	0.000
451.76	0.000
