SpectraSuite Data File
++++++++++++++++++++++++++++++++++++
Date: Mon Jun 15 07:47:38 PDT 2015
User: introlabs
Dark Spectrum Present: Yes
Reference Spectrum Present: Yes
Number of Sampled Component Spectra: 1
Spectrometers: USB4H08886
Integration Time (usec): 44366 (USB4H08886)
Spectra Averaged: 20 (USB4H08886)
Boxcar Smoothing: 5 (USB4H08886)
Correct for Electrical Dark: Yes (USB4H08886)
Strobe/Lamp Enabled: No (USB4H08886)
Correct for Detector Non-linearity: Yes (USB4H08886)
Correct for Stray Light: Yes (USB4H08886)
Number of Pixels in Processed Spectrum: 3648
>>>>>Begin Processed Spectral Data<<<<<
178.14	0.128
178.36	0.128
178.57	0.128
178.79	0.917
179.01	-0.913
179.22	-0.012
179.44	-0.333
179.65	-0.000
179.87	-0.000
180.08	0.927
180.30	0.782
180.52	0.380
180.73	0.258
180.95	0.172
181.16	0.110
181.38	0.074
181.59	0.052
181.81	0.045
182.03	0.042
182.24	0.037
182.46	0.019
182.67	0.018
182.89	0.021
183.10	0.027
183.32	0.025
183.54	0.020
183.75	0.017
183.97	0.024
184.18	0.024
184.40	0.023
184.61	0.032
184.83	0.035
185.04	0.037
185.26	0.041
185.48	0.037
185.69	0.036
185.91	0.035
186.12	0.034
186.34	0.034
186.55	0.026
186.77	0.028
186.98	0.018
187.20	0.019
187.42	0.023
187.63	0.023
187.85	0.019
188.06	0.017
188.28	0.023
188.49	0.022
188.71	0.017
188.92	0.023
189.14	0.018
189.36	0.028
189.57	0.025
189.79	0.013
190.00	0.009
190.22	0.013
190.43	0.016
190.65	0.006
190.86	0.011
191.08	0.011
191.29	0.006
191.51	0.004
191.72	-0.002
191.94	0.003
192.16	0.013
192.37	0.016
192.59	0.021
192.80	0.018
193.02	0.022
193.23	0.024
193.45	0.016
193.66	0.018
193.88	0.018
194.09	0.013
194.31	0.012
194.52	0.003
194.74	-0.003
194.95	-0.007
195.17	-0.006
195.38	-0.011
195.60	-0.027
195.81	-0.005
196.03	-0.005
196.25	0.004
196.46	0.007
196.68	0.009
196.89	0.015
197.11	0.019
197.32	0.016
197.54	0.007
197.75	0.026
197.97	0.036
198.18	0.023
198.40	0.020
198.61	0.010
198.83	0.007
199.04	0.007
199.26	0.001
199.47	-0.005
199.69	-0.000
199.90	0.011
200.12	0.003
200.33	0.004
200.55	0.003
200.76	0.003
200.98	0.003
201.19	0.004
201.41	-0.002
201.62	0.007
201.84	0.013
202.05	0.012
202.27	0.013
202.48	0.013
202.70	0.010
202.91	0.011
203.13	0.011
203.34	0.011
203.56	0.015
203.77	0.023
203.99	0.013
204.20	0.002
204.42	-0.002
204.63	-0.002
204.85	-0.007
205.06	-0.007
205.28	-0.004
205.49	0.000
205.71	0.004
205.92	0.004
206.14	-0.006
206.35	0.000
206.56	0.013
206.78	0.013
206.99	0.015
207.21	0.021
207.42	0.022
207.64	0.027
207.85	0.025
208.07	0.022
208.28	0.017
208.50	0.025
208.71	0.025
208.93	0.020
209.14	0.023
209.36	0.015
209.57	0.017
209.79	0.024
210.00	0.016
210.22	0.018
210.43	0.018
210.64	0.021
210.86	0.011
211.07	0.009
211.29	0.006
211.50	0.004
211.72	0.001
211.93	-0.003
212.15	-0.008
212.36	-0.011
212.58	-0.010
212.79	-0.008
213.01	-0.010
213.22	-0.002
213.43	-0.002
213.65	-0.000
213.86	0.002
214.08	0.010
214.29	0.015
214.51	0.015
214.72	0.019
214.94	0.012
215.15	0.021
215.36	0.023
215.58	0.019
215.79	0.021
216.01	0.025
216.22	0.023
216.44	0.021
216.65	0.014
216.87	0.017
217.08	0.014
217.29	0.019
217.51	0.014
217.72	0.011
217.94	0.015
218.15	0.021
218.37	0.014
218.58	0.012
218.80	0.016
219.01	0.018
219.22	0.011
219.44	0.013
219.65	0.014
219.87	0.016
220.08	0.015
220.30	0.011
220.51	0.005
220.72	0.007
220.94	0.005
221.15	0.003
221.37	-0.002
221.58	-0.001
221.79	0.002
222.01	-0.006
222.22	-0.015
222.44	-0.015
222.65	-0.011
222.87	-0.011
223.08	-0.011
223.29	-0.005
223.51	-0.005
223.72	0.000
223.94	0.001
224.15	-0.002
224.36	0.006
224.58	0.006
224.79	0.015
225.01	0.012
225.22	0.009
225.44	0.009
225.65	0.013
225.86	0.012
226.08	0.013
226.29	0.013
226.51	0.018
226.72	0.013
226.93	0.016
227.15	0.008
227.36	0.010
227.58	0.011
227.79	0.015
228.00	0.012
228.22	0.007
228.43	0.004
228.65	0.007
228.86	0.005
229.07	0.009
229.29	0.011
229.50	0.011
229.72	0.010
229.93	0.011
230.14	0.011
230.36	0.008
230.57	0.011
230.78	0.011
231.00	0.006
231.21	0.004
231.43	0.001
231.64	0.001
231.85	0.003
232.07	0.004
232.28	0.004
232.50	0.001
232.71	0.000
232.92	0.000
233.14	0.002
233.35	0.004
233.56	0.005
233.78	0.005
233.99	0.004
234.21	0.004
234.42	0.005
234.63	0.005
234.85	0.007
235.06	0.007
235.27	0.007
235.49	0.007
235.70	0.008
235.91	0.007
236.13	0.008
236.34	0.007
236.56	0.008
236.77	0.007
236.98	0.007
237.20	0.005
237.41	0.006
237.62	0.008
237.84	0.008
238.05	0.008
238.26	0.007
238.48	0.008
238.69	0.009
238.91	0.009
239.12	0.009
239.33	0.009
239.55	0.011
239.76	0.011
239.97	0.011
240.19	0.012
240.40	0.012
240.61	0.013
240.83	0.013
241.04	0.014
241.25	0.014
241.47	0.014
241.68	0.015
241.89	0.015
242.11	0.015
242.32	0.015
242.53	0.014
242.75	0.014
242.96	0.015
243.17	0.016
243.39	0.015
243.60	0.016
243.81	0.016
244.03	0.015
244.24	0.015
244.45	0.016
244.67	0.016
244.88	0.017
245.09	0.017
245.31	0.017
245.52	0.016
245.73	0.016
245.95	0.016
246.16	0.016
246.37	0.016
246.59	0.016
246.80	0.017
247.01	0.017
247.23	0.017
247.44	0.016
247.65	0.016
247.87	0.016
248.08	0.016
248.29	0.016
248.51	0.017
248.72	0.017
248.93	0.017
249.15	0.017
249.36	0.016
249.57	0.016
249.78	0.017
250.00	0.017
250.21	0.017
250.42	0.017
250.64	0.017
250.85	0.017
251.06	0.017
251.28	0.017
251.49	0.018
251.70	0.017
251.92	0.018
252.13	0.018
252.34	0.018
252.55	0.017
252.77	0.017
252.98	0.017
253.19	0.017
253.41	0.017
253.62	0.018
253.83	0.017
254.05	0.017
254.26	0.017
254.47	0.017
254.68	0.017
254.90	0.017
255.11	0.018
255.32	0.018
255.54	0.018
255.75	0.018
255.96	0.017
256.17	0.017
256.39	0.018
256.60	0.018
256.81	0.017
257.03	0.017
257.24	0.017
257.45	0.017
257.66	0.017
257.88	0.017
258.09	0.017
258.30	0.017
258.51	0.017
258.73	0.017
258.94	0.017
259.15	0.017
259.37	0.016
259.58	0.016
259.79	0.016
260.00	0.016
260.22	0.016
260.43	0.016
260.64	0.015
260.85	0.015
261.07	0.015
261.28	0.015
261.49	0.014
261.71	0.015
261.92	0.015
262.13	0.015
262.34	0.014
262.56	0.014
262.77	0.014
262.98	0.014
263.19	0.014
263.41	0.014
263.62	0.014
263.83	0.014
264.04	0.014
264.26	0.014
264.47	0.014
264.68	0.013
264.89	0.014
265.11	0.013
265.32	0.014
265.53	0.014
265.74	0.014
265.96	0.014
266.17	0.014
266.38	0.014
266.59	0.014
266.81	0.014
267.02	0.014
267.23	0.013
267.44	0.013
267.65	0.012
267.87	0.012
268.08	0.012
268.29	0.012
268.50	0.011
268.72	0.011
268.93	0.011
269.14	0.011
269.35	0.011
269.57	0.012
269.78	0.012
269.99	0.012
270.20	0.012
270.41	0.012
270.63	0.012
270.84	0.012
271.05	0.012
271.26	0.012
271.48	0.011
271.69	0.011
271.90	0.011
272.11	0.011
272.32	0.010
272.54	0.010
272.75	0.010
272.96	0.010
273.17	0.010
273.39	0.010
273.60	0.010
273.81	0.010
274.02	0.010
274.23	0.010
274.45	0.011
274.66	0.011
274.87	0.011
275.08	0.011
275.29	0.011
275.51	0.010
275.72	0.010
275.93	0.010
276.14	0.010
276.35	0.010
276.57	0.010
276.78	0.010
276.99	0.010
277.20	0.010
277.41	0.010
277.63	0.010
277.84	0.010
278.05	0.010
278.26	0.010
278.47	0.010
278.69	0.010
278.90	0.010
279.11	0.010
279.32	0.010
279.53	0.010
279.74	0.010
279.96	0.010
280.17	0.010
280.38	0.011
280.59	0.010
280.80	0.010
281.02	0.011
281.23	0.011
281.44	0.011
281.65	0.011
281.86	0.011
282.07	0.010
282.29	0.011
282.50	0.011
282.71	0.011
282.92	0.011
283.13	0.011
283.35	0.011
283.56	0.011
283.77	0.011
283.98	0.011
284.19	0.011
284.40	0.011
284.62	0.011
284.83	0.011
285.04	0.011
285.25	0.012
285.46	0.012
285.67	0.012
285.88	0.012
286.10	0.012
286.31	0.013
286.52	0.013
286.73	0.013
286.94	0.013
287.15	0.014
287.37	0.014
287.58	0.014
287.79	0.014
288.00	0.014
288.21	0.014
288.42	0.014
288.63	0.014
288.85	0.014
289.06	0.015
289.27	0.015
289.48	0.014
289.69	0.014
289.90	0.014
290.11	0.015
290.33	0.015
290.54	0.015
290.75	0.015
290.96	0.015
291.17	0.015
291.38	0.016
291.59	0.016
291.81	0.016
292.02	0.016
292.23	0.016
292.44	0.016
292.65	0.016
292.86	0.016
293.07	0.017
293.28	0.017
293.50	0.017
293.71	0.017
293.92	0.016
294.13	0.017
294.34	0.017
294.55	0.016
294.76	0.017
294.97	0.017
295.19	0.017
295.40	0.016
295.61	0.016
295.82	0.016
296.03	0.016
296.24	0.016
296.45	0.016
296.66	0.016
296.87	0.016
297.09	0.016
297.30	0.016
297.51	0.016
297.72	0.016
297.93	0.016
298.14	0.016
298.35	0.016
298.56	0.016
298.77	0.016
298.99	0.016
299.20	0.016
299.41	0.016
299.62	0.016
299.83	0.016
300.04	0.016
300.25	0.016
300.46	0.016
300.67	0.016
300.88	0.016
301.10	0.016
301.31	0.016
301.52	0.016
301.73	0.016
301.94	0.016
302.15	0.016
302.36	0.016
302.57	0.016
302.78	0.015
302.99	0.015
303.20	0.015
303.41	0.015
303.63	0.015
303.84	0.015
304.05	0.015
304.26	0.015
304.47	0.015
304.68	0.015
304.89	0.015
305.10	0.015
305.31	0.015
305.52	0.015
305.73	0.015
305.94	0.015
306.15	0.015
306.37	0.015
306.58	0.016
306.79	0.016
307.00	0.016
307.21	0.016
307.42	0.016
307.63	0.016
307.84	0.016
308.05	0.016
308.26	0.015
308.47	0.015
308.68	0.015
308.89	0.015
309.10	0.015
309.31	0.015
309.52	0.015
309.73	0.015
309.95	0.015
310.16	0.015
310.37	0.015
310.58	0.015
310.79	0.015
311.00	0.015
311.21	0.015
311.42	0.015
311.63	0.015
311.84	0.015
312.05	0.015
312.26	0.015
312.47	0.015
312.68	0.015
312.89	0.015
313.10	0.015
313.31	0.015
313.52	0.015
313.73	0.015
313.94	0.015
314.15	0.015
314.36	0.015
314.57	0.015
314.78	0.015
314.99	0.015
315.21	0.015
315.42	0.015
315.63	0.015
315.84	0.015
316.05	0.015
316.26	0.015
316.47	0.015
316.68	0.015
316.89	0.015
317.10	0.015
317.31	0.015
317.52	0.015
317.73	0.015
317.94	0.015
318.15	0.015
318.36	0.015
318.57	0.015
318.78	0.015
318.99	0.015
319.20	0.015
319.41	0.015
319.62	0.015
319.83	0.015
320.04	0.015
320.25	0.015
320.46	0.015
320.67	0.015
320.88	0.015
321.09	0.015
321.30	0.015
321.51	0.014
321.72	0.014
321.93	0.014
322.14	0.014
322.35	0.014
322.56	0.014
322.77	0.014
322.98	0.014
323.19	0.014
323.40	0.014
323.61	0.014
323.82	0.014
324.03	0.014
324.24	0.014
324.45	0.014
324.66	0.014
324.87	0.014
325.08	0.014
325.29	0.014
325.50	0.014
325.71	0.014
325.92	0.014
326.13	0.014
326.34	0.014
326.55	0.014
326.76	0.014
326.97	0.014
327.18	0.014
327.39	0.014
327.60	0.014
327.80	0.014
328.01	0.014
328.22	0.014
328.43	0.014
328.64	0.014
328.85	0.014
329.06	0.014
329.27	0.014
329.48	0.014
329.69	0.014
329.90	0.014
330.11	0.014
330.32	0.014
330.53	0.014
330.74	0.014
330.95	0.014
331.16	0.014
331.37	0.014
331.58	0.014
331.79	0.014
332.00	0.014
332.21	0.014
332.42	0.014
332.63	0.014
332.83	0.014
333.04	0.014
333.25	0.014
333.46	0.014
333.67	0.014
333.88	0.014
334.09	0.013
334.30	0.014
334.51	0.014
334.72	0.013
334.93	0.013
335.14	0.013
335.35	0.013
335.56	0.013
335.77	0.013
335.98	0.013
336.18	0.013
336.39	0.013
336.60	0.013
336.81	0.013
337.02	0.013
337.23	0.013
337.44	0.013
337.65	0.013
337.86	0.013
338.07	0.013
338.28	0.013
338.49	0.013
338.70	0.013
338.91	0.013
339.11	0.013
339.32	0.013
339.53	0.013
339.74	0.012
339.95	0.012
340.16	0.012
340.37	0.012
340.58	0.012
340.79	0.012
341.00	0.012
341.21	0.012
341.41	0.012
341.62	0.012
341.83	0.012
342.04	0.012
342.25	0.012
342.46	0.012
342.67	0.012
342.88	0.012
343.09	0.012
343.30	0.012
343.50	0.012
343.71	0.012
343.92	0.012
344.13	0.012
344.34	0.012
344.55	0.012
344.76	0.012
344.97	0.012
345.18	0.012
345.38	0.012
345.59	0.012
345.80	0.012
346.01	0.012
346.22	0.012
346.43	0.012
346.64	0.011
346.85	0.011
347.06	0.011
347.26	0.011
347.47	0.011
347.68	0.011
347.89	0.011
348.10	0.011
348.31	0.011
348.52	0.011
348.73	0.011
348.93	0.011
349.14	0.011
349.35	0.011
349.56	0.011
349.77	0.011
349.98	0.011
350.19	0.011
350.39	0.011
350.60	0.011
350.81	0.011
351.02	0.011
351.23	0.011
351.44	0.011
351.65	0.011
351.86	0.011
352.06	0.011
352.27	0.011
352.48	0.011
352.69	0.011
352.90	0.011
353.11	0.011
353.31	0.011
353.52	0.011
353.73	0.011
353.94	0.011
354.15	0.011
354.36	0.011
354.57	0.011
354.77	0.011
354.98	0.011
355.19	0.011
355.40	0.011
355.61	0.011
355.82	0.011
356.02	0.011
356.23	0.011
356.44	0.011
356.65	0.011
356.86	0.011
357.07	0.010
357.27	0.010
357.48	0.010
357.69	0.010
357.90	0.010
358.11	0.010
358.32	0.010
358.52	0.010
358.73	0.010
358.94	0.010
359.15	0.010
359.36	0.010
359.56	0.010
359.77	0.010
359.98	0.010
360.19	0.010
360.40	0.010
360.61	0.010
360.81	0.010
361.02	0.010
361.23	0.010
361.44	0.010
361.65	0.010
361.85	0.010
362.06	0.010
362.27	0.010
362.48	0.010
362.69	0.010
362.89	0.010
363.10	0.010
363.31	0.010
363.52	0.010
363.73	0.010
363.93	0.010
364.14	0.010
364.35	0.010
364.56	0.010
364.77	0.010
364.97	0.010
365.18	0.010
365.39	0.010
365.60	0.010
365.81	0.010
366.01	0.009
366.22	0.009
366.43	0.009
366.64	0.009
366.84	0.009
367.05	0.009
367.26	0.010
367.47	0.009
367.68	0.010
367.88	0.010
368.09	0.010
368.30	0.010
368.51	0.010
368.71	0.010
368.92	0.010
369.13	0.009
369.34	0.009
369.55	0.009
369.75	0.009
369.96	0.009
370.17	0.009
370.38	0.009
370.58	0.009
370.79	0.009
371.00	0.009
371.21	0.009
371.41	0.009
371.62	0.009
371.83	0.009
372.04	0.009
372.24	0.009
372.45	0.009
372.66	0.009
372.87	0.009
373.07	0.009
373.28	0.009
373.49	0.009
373.70	0.009
373.90	0.009
374.11	0.009
374.32	0.009
374.53	0.009
374.73	0.009
374.94	0.009
375.15	0.009
375.36	0.009
375.56	0.009
375.77	0.009
375.98	0.009
376.19	0.009
376.39	0.009
376.60	0.009
376.81	0.009
377.02	0.009
377.22	0.009
377.43	0.009
377.64	0.009
377.84	0.009
378.05	0.009
378.26	0.009
378.47	0.009
378.67	0.009
378.88	0.009
379.09	0.009
379.30	0.009
379.50	0.009
379.71	0.009
379.92	0.009
380.12	0.009
380.33	0.009
380.54	0.009
380.75	0.009
380.95	0.009
381.16	0.008
381.37	0.008
381.57	0.008
381.78	0.008
381.99	0.008
382.20	0.008
382.40	0.008
382.61	0.009
382.82	0.008
383.02	0.008
383.23	0.008
383.44	0.009
383.64	0.009
383.85	0.009
384.06	0.009
384.27	0.009
384.47	0.009
384.68	0.009
384.89	0.008
385.09	0.008
385.30	0.008
385.51	0.008
385.71	0.008
385.92	0.008
386.13	0.008
386.33	0.008
386.54	0.008
386.75	0.008
386.95	0.008
387.16	0.008
387.37	0.008
387.58	0.008
387.78	0.008
387.99	0.008
388.20	0.008
388.40	0.009
388.61	0.008
388.82	0.008
389.02	0.008
389.23	0.008
389.44	0.008
389.64	0.008
389.85	0.008
390.06	0.008
390.26	0.008
390.47	0.008
390.68	0.008
390.88	0.008
391.09	0.008
391.30	0.008
391.50	0.008
391.71	0.008
391.92	0.008
392.12	0.008
392.33	0.008
392.53	0.008
392.74	0.008
392.95	0.008
393.15	0.008
393.36	0.008
393.57	0.008
393.77	0.008
393.98	0.008
394.19	0.008
394.39	0.008
394.60	0.008
394.81	0.008
395.01	0.008
395.22	0.008
395.43	0.008
395.63	0.008
395.84	0.008
396.04	0.008
396.25	0.008
396.46	0.008
396.66	0.008
396.87	0.008
397.08	0.008
397.28	0.008
397.49	0.008
397.69	0.008
397.90	0.008
398.11	0.008
398.31	0.008
398.52	0.008
398.73	0.008
398.93	0.008
399.14	0.008
399.34	0.008
399.55	0.008
399.76	0.007
399.96	0.007
400.17	0.007
400.37	0.007
400.58	0.008
400.79	0.008
400.99	0.007
401.20	0.007
401.41	0.007
401.61	0.007
401.82	0.007
402.02	0.008
402.23	0.007
402.44	0.007
402.64	0.007
402.85	0.007
403.05	0.007
403.26	0.007
403.47	0.007
403.67	0.007
403.88	0.007
404.08	0.007
404.29	0.007
404.50	0.007
404.70	0.007
404.91	0.007
405.11	0.007
405.32	0.007
405.52	0.007
405.73	0.007
405.94	0.007
406.14	0.007
406.35	0.007
406.55	0.007
406.76	0.007
406.97	0.007
407.17	0.007
407.38	0.007
407.58	0.007
407.79	0.007
407.99	0.007
408.20	0.007
408.41	0.007
408.61	0.007
408.82	0.007
409.02	0.007
409.23	0.007
409.43	0.007
409.64	0.007
409.84	0.007
410.05	0.007
410.26	0.007
410.46	0.007
410.67	0.007
410.87	0.007
411.08	0.007
411.28	0.007
411.49	0.007
411.69	0.007
411.90	0.007
412.11	0.007
412.31	0.007
412.52	0.007
412.72	0.007
412.93	0.007
413.13	0.007
413.34	0.007
413.54	0.007
413.75	0.007
413.95	0.007
414.16	0.007
414.37	0.007
414.57	0.007
414.78	0.007
414.98	0.007
415.19	0.007
415.39	0.007
415.60	0.007
415.80	0.007
416.01	0.007
416.21	0.007
416.42	0.007
416.62	0.007
416.83	0.007
417.03	0.006
417.24	0.006
417.44	0.006
417.65	0.006
417.86	0.006
418.06	0.006
418.27	0.006
418.47	0.006
418.68	0.006
418.88	0.006
419.09	0.006
419.29	0.007
419.50	0.007
419.70	0.006
419.91	0.007
420.11	0.007
420.32	0.007
420.52	0.007
420.73	0.006
420.93	0.006
421.14	0.006
421.34	0.006
421.55	0.006
421.75	0.006
421.96	0.006
422.16	0.006
422.37	0.006
422.57	0.006
422.78	0.006
422.98	0.006
423.19	0.006
423.39	0.006
423.60	0.006
423.80	0.006
424.01	0.006
424.21	0.007
424.42	0.007
424.62	0.007
424.83	0.007
425.03	0.007
425.23	0.007
425.44	0.007
425.64	0.007
425.85	0.007
426.05	0.007
426.26	0.006
426.46	0.006
426.67	0.007
426.87	0.006
427.08	0.007
427.28	0.007
427.49	0.006
427.69	0.006
427.90	0.006
428.10	0.006
428.31	0.006
428.51	0.006
428.71	0.006
428.92	0.006
429.12	0.006
429.33	0.006
429.53	0.006
429.74	0.006
429.94	0.006
430.15	0.006
430.35	0.006
430.56	0.006
430.76	0.006
430.96	0.006
431.17	0.006
431.37	0.006
431.58	0.006
431.78	0.006
431.99	0.006
432.19	0.006
432.40	0.006
432.60	0.006
432.80	0.006
433.01	0.006
433.21	0.006
433.42	0.006
433.62	0.006
433.83	0.006
434.03	0.006
434.23	0.006
434.44	0.006
434.64	0.006
434.85	0.006
435.05	0.006
435.26	0.006
435.46	0.006
435.66	0.006
435.87	0.006
436.07	0.006
436.28	0.006
436.48	0.006
436.69	0.006
436.89	0.006
437.09	0.006
437.30	0.006
437.50	0.006
437.71	0.006
437.91	0.006
438.11	0.006
438.32	0.006
438.52	0.006
438.73	0.006
438.93	0.006
439.13	0.006
439.34	0.006
439.54	0.006
439.75	0.006
439.95	0.006
440.15	0.006
440.36	0.006
440.56	0.006
440.77	0.006
440.97	0.006
441.17	0.006
441.38	0.006
441.58	0.006
441.79	0.006
441.99	0.006
442.19	0.006
442.40	0.006
442.60	0.006
442.81	0.006
443.01	0.006
443.21	0.006
443.42	0.006
443.62	0.006
443.82	0.006
444.03	0.006
444.23	0.006
444.44	0.006
444.64	0.006
444.84	0.006
445.05	0.006
445.25	0.006
445.45	0.006
445.66	0.006
445.86	0.006
446.06	0.006
446.27	0.006
446.47	0.006
446.68	0.006
446.88	0.006
447.08	0.006
447.29	0.006
447.49	0.006
447.69	0.006
447.90	0.006
448.10	0.006
448.30	0.006
448.51	0.006
448.71	0.006
448.91	0.006
449.12	0.006
449.32	0.006
449.52	0.006
449.73	0.006
449.93	0.006
450.14	0.005
450.34	0.005
450.54	0.005
450.75	0.005
450.95	0.005
451.15	0.005
451.36	0.005
451.56	0.005
451.76	0.005
451.97	0.005
452.17	0.005
452.37	0.005
452.58	0.005
452.78	0.005
452.98	0.005
453.19	0.005
453.39	0.005
453.59	0.005
453.79	0.005
454.00	0.005
454.20	0.005
454.40	0.005
454.61	0.005
454.81	0.005
455.01	0.005
455.22	0.005
455.42	0.005
455.62	0.005
455.83	0.005
456.03	0.005
456.23	0.006
456.44	0.006
456.64	0.006
456.84	0.006
457.04	0.006
457.25	0.006
457.45	0.006
457.65	0.006
457.86	0.006
458.06	0.006
458.26	0.006
458.47	0.005
458.67	0.005
458.87	0.005
459.07	0.005
459.28	0.005
459.48	0.005
459.68	0.005
459.89	0.005
460.09	0.005
460.29	0.005
460.49	0.005
460.70	0.005
460.90	0.005
461.10	0.005
461.31	0.005
461.51	0.006
461.71	0.006
461.91	0.006
462.12	0.006
462.32	0.006
462.52	0.006
462.72	0.006
462.93	0.006
463.13	0.006
463.33	0.006
463.53	0.006
463.74	0.005
463.94	0.005
464.14	0.005
464.35	0.005
464.55	0.005
464.75	0.005
464.95	0.005
465.16	0.005
465.36	0.005
465.56	0.005
465.76	0.005
465.97	0.005
466.17	0.005
466.37	0.005
466.57	0.005
466.78	0.005
466.98	0.005
467.18	0.005
