SpectraSuite Data File
++++++++++++++++++++++++++++++++++++
Date: Mon Jun 15 08:54:36 PDT 2015
User: introlabs
Dark Spectrum Present: Yes
Reference Spectrum Present: Yes
Number of Sampled Component Spectra: 1
Spectrometers: USB4H08886
Integration Time (usec): 44366 (USB4H08886)
Spectra Averaged: 20 (USB4H08886)
Boxcar Smoothing: 5 (USB4H08886)
Correct for Electrical Dark: Yes (USB4H08886)
Strobe/Lamp Enabled: No (USB4H08886)
Correct for Detector Non-linearity: Yes (USB4H08886)
Correct for Stray Light: Yes (USB4H08886)
Number of Pixels in Processed Spectrum: 3648
>>>>>Begin Processed Spectral Data<<<<<
178.14	-0.000
178.36	-0.000
178.57	-0.000
178.79	-0.000
179.01	-0.686
179.22	0.501
179.44	-0.124
179.65	1.499
179.87	0.602
180.08	0.453
180.30	0.166
180.52	0.122
180.73	0.041
180.95	0.005
181.16	0.018
181.38	0.002
181.59	0.002
181.81	-0.006
182.03	0.019
182.24	0.035
182.46	0.038
182.67	0.043
182.89	0.042
183.10	0.042
183.32	0.042
183.54	0.032
183.75	0.034
183.97	0.035
184.18	0.030
184.40	0.018
184.61	0.014
184.83	0.015
185.04	0.009
185.26	0.016
185.48	0.016
185.69	0.013
185.91	0.013
186.12	0.011
186.34	0.023
186.55	0.014
186.77	0.021
186.98	0.019
187.20	0.010
187.42	0.023
187.63	0.020
187.85	0.016
188.06	0.021
188.28	0.026
188.49	0.034
188.71	0.027
188.92	0.030
189.14	0.022
189.36	0.026
189.57	0.032
189.79	0.022
190.00	0.015
190.22	0.017
190.43	0.011
190.65	0.004
190.86	0.005
191.08	0.005
191.29	0.014
191.51	0.022
191.72	0.021
191.94	0.024
192.16	0.028
192.37	0.029
192.59	0.034
192.80	0.038
193.02	0.043
193.23	0.042
193.45	0.033
193.66	0.022
193.88	0.015
194.09	0.009
194.31	0.007
194.52	0.000
194.74	0.002
194.95	-0.004
195.17	-0.007
195.38	-0.016
195.60	-0.032
195.81	-0.018
196.03	-0.013
196.25	-0.002
196.46	0.004
196.68	0.002
196.89	0.009
197.11	0.005
197.32	0.009
197.54	0.002
197.75	0.019
197.97	0.028
198.18	0.020
198.40	0.023
198.61	0.016
198.83	0.004
199.04	0.012
199.26	0.005
199.47	0.007
199.69	0.014
199.90	0.033
200.12	0.020
200.33	0.023
200.55	0.020
200.76	0.015
200.98	0.015
201.19	0.021
201.41	0.011
201.62	0.018
201.84	0.021
202.05	0.017
202.27	0.007
202.48	0.011
202.70	0.008
202.91	0.012
203.13	0.010
203.34	0.008
203.56	0.009
203.77	0.013
203.99	0.010
204.20	0.004
204.42	-0.004
204.63	0.001
204.85	-0.001
205.06	0.001
205.28	0.005
205.49	0.009
205.71	0.010
205.92	0.012
206.14	0.008
206.35	0.014
206.56	0.023
206.78	0.025
206.99	0.027
207.21	0.030
207.42	0.026
207.64	0.021
207.85	0.018
208.07	0.028
208.28	0.029
208.50	0.033
208.71	0.030
208.93	0.028
209.14	0.029
209.36	0.025
209.57	0.022
209.79	0.031
210.00	0.033
210.22	0.036
210.43	0.027
210.64	0.026
210.86	0.022
211.07	0.018
211.29	0.009
211.50	0.008
211.72	-0.002
211.93	-0.002
212.15	-0.005
212.36	-0.007
212.58	-0.011
212.79	-0.012
213.01	-0.018
213.22	-0.017
213.43	-0.015
213.65	-0.012
213.86	-0.009
214.08	0.000
214.29	0.006
214.51	0.007
214.72	0.008
214.94	0.006
215.15	0.012
215.36	0.013
215.58	0.013
215.79	0.011
216.01	0.020
216.22	0.020
216.44	0.018
216.65	0.012
216.87	0.011
217.08	0.008
217.29	0.015
217.51	0.013
217.72	0.012
217.94	0.021
218.15	0.026
218.37	0.016
218.58	0.011
218.80	0.018
219.01	0.018
219.22	0.014
219.44	0.017
219.65	0.012
219.87	0.013
220.08	0.010
220.30	0.000
220.51	-0.002
220.72	0.001
220.94	-0.001
221.15	-0.006
221.37	-0.008
221.58	-0.003
221.79	-0.002
222.01	-0.011
222.22	-0.018
222.44	-0.017
222.65	-0.018
222.87	-0.019
223.08	-0.017
223.29	-0.015
223.51	-0.017
223.72	-0.019
223.94	-0.024
224.15	-0.027
224.36	-0.017
224.58	-0.014
224.79	-0.007
225.01	-0.005
225.22	-0.007
225.44	-0.010
225.65	-0.008
225.86	-0.002
226.08	0.001
226.29	0.002
226.51	0.004
226.72	0.001
226.93	0.003
227.15	-0.003
227.36	-0.008
227.58	-0.009
227.79	-0.003
228.00	-0.006
228.22	-0.015
228.43	-0.020
228.65	-0.019
228.86	-0.020
229.07	-0.020
229.29	-0.022
229.50	-0.023
229.72	-0.019
229.93	-0.021
230.14	-0.025
230.36	-0.024
230.57	-0.022
230.78	-0.022
231.00	-0.028
231.21	-0.033
231.43	-0.034
231.64	-0.035
231.85	-0.035
232.07	-0.034
232.28	-0.034
232.50	-0.036
232.71	-0.036
232.92	-0.038
233.14	-0.037
233.35	-0.033
233.56	-0.031
233.78	-0.030
233.99	-0.031
234.21	-0.030
234.42	-0.030
234.63	-0.028
234.85	-0.028
235.06	-0.030
235.27	-0.028
235.49	-0.028
235.70	-0.030
235.91	-0.031
236.13	-0.031
236.34	-0.032
236.56	-0.033
236.77	-0.033
236.98	-0.034
237.20	-0.034
237.41	-0.032
237.62	-0.031
237.84	-0.033
238.05	-0.032
238.26	-0.031
238.48	-0.032
238.69	-0.030
238.91	-0.029
239.12	-0.029
239.33	-0.029
239.55	-0.028
239.76	-0.029
239.97	-0.028
240.19	-0.026
240.40	-0.026
240.61	-0.025
240.83	-0.025
241.04	-0.024
241.25	-0.024
241.47	-0.023
241.68	-0.021
241.89	-0.022
242.11	-0.021
242.32	-0.021
242.53	-0.020
242.75	-0.019
242.96	-0.018
243.17	-0.017
243.39	-0.017
243.60	-0.017
243.81	-0.016
244.03	-0.017
244.24	-0.016
244.45	-0.015
244.67	-0.015
244.88	-0.013
245.09	-0.013
245.31	-0.013
245.52	-0.013
245.73	-0.012
245.95	-0.011
246.16	-0.011
246.37	-0.009
246.59	-0.010
246.80	-0.010
247.01	-0.009
247.23	-0.009
247.44	-0.009
247.65	-0.008
247.87	-0.008
248.08	-0.008
248.29	-0.008
248.51	-0.008
248.72	-0.008
248.93	-0.008
249.15	-0.007
249.36	-0.007
249.57	-0.007
249.78	-0.007
250.00	-0.007
250.21	-0.006
250.42	-0.006
250.64	-0.006
250.85	-0.005
251.06	-0.004
251.28	-0.004
251.49	-0.004
251.70	-0.004
251.92	-0.004
252.13	-0.003
252.34	-0.002
252.55	-0.002
252.77	-0.002
252.98	-0.002
253.19	-0.002
253.41	-0.002
253.62	-0.002
253.83	-0.001
254.05	-0.000
254.26	-0.001
254.47	-0.001
254.68	-0.001
254.90	-0.001
255.11	-0.000
255.32	-0.000
255.54	-0.000
255.75	-0.000
255.96	-0.000
256.17	-0.000
256.39	-0.000
256.60	-0.000
256.81	0.000
257.03	0.000
257.24	0.001
257.45	0.000
257.66	0.000
257.88	0.001
258.09	0.001
258.30	0.001
258.51	0.001
258.73	0.001
258.94	0.001
259.15	0.001
259.37	0.001
259.58	0.000
259.79	0.000
260.00	0.000
260.22	0.000
260.43	0.000
260.64	0.000
260.85	-0.000
261.07	-0.000
261.28	-0.000
261.49	-0.000
261.71	-0.000
261.92	-0.000
262.13	-0.000
262.34	-0.000
262.56	-0.000
262.77	-0.000
262.98	-0.001
263.19	-0.000
263.41	-0.001
263.62	-0.001
263.83	-0.001
264.04	-0.001
264.26	-0.002
264.47	-0.002
264.68	-0.002
264.89	-0.002
265.11	-0.003
265.32	-0.002
265.53	-0.002
265.74	-0.002
265.96	-0.002
266.17	-0.002
266.38	-0.001
266.59	-0.001
266.81	-0.001
267.02	-0.001
267.23	-0.002
267.44	-0.002
267.65	-0.002
267.87	-0.003
268.08	-0.003
268.29	-0.003
268.50	-0.003
268.72	-0.004
268.93	-0.004
269.14	-0.004
269.35	-0.005
269.57	-0.004
269.78	-0.005
269.99	-0.005
270.20	-0.005
270.41	-0.006
270.63	-0.006
270.84	-0.006
271.05	-0.007
271.26	-0.007
271.48	-0.007
271.69	-0.008
271.90	-0.008
272.11	-0.008
272.32	-0.008
272.54	-0.009
272.75	-0.009
272.96	-0.009
273.17	-0.009
273.39	-0.009
273.60	-0.009
273.81	-0.009
274.02	-0.009
274.23	-0.009
274.45	-0.009
274.66	-0.009
274.87	-0.009
275.08	-0.009
275.29	-0.009
275.51	-0.010
275.72	-0.010
275.93	-0.010
276.14	-0.010
276.35	-0.009
276.57	-0.010
276.78	-0.010
276.99	-0.009
277.20	-0.009
277.41	-0.009
277.63	-0.009
277.84	-0.009
278.05	-0.008
278.26	-0.008
278.47	-0.008
278.69	-0.008
278.90	-0.008
279.11	-0.008
279.32	-0.008
279.53	-0.008
279.74	-0.007
279.96	-0.007
280.17	-0.007
280.38	-0.007
280.59	-0.007
280.80	-0.007
281.02	-0.007
281.23	-0.007
281.44	-0.006
281.65	-0.006
281.86	-0.006
282.07	-0.006
282.29	-0.006
282.50	-0.006
282.71	-0.006
282.92	-0.005
283.13	-0.005
283.35	-0.005
283.56	-0.005
283.77	-0.005
283.98	-0.005
284.19	-0.004
284.40	-0.003
284.62	-0.003
284.83	-0.003
285.04	-0.002
285.25	-0.002
285.46	-0.002
285.67	-0.001
285.88	-0.000
286.10	0.000
286.31	0.001
286.52	0.001
286.73	0.002
286.94	0.002
287.15	0.003
287.37	0.003
287.58	0.004
287.79	0.004
288.00	0.005
288.21	0.005
288.42	0.006
288.63	0.006
288.85	0.007
289.06	0.007
289.27	0.008
289.48	0.008
289.69	0.009
289.90	0.009
290.11	0.009
290.33	0.010
290.54	0.010
290.75	0.011
290.96	0.011
291.17	0.011
291.38	0.011
291.59	0.012
291.81	0.012
292.02	0.012
292.23	0.013
292.44	0.013
292.65	0.013
292.86	0.013
293.07	0.014
293.28	0.014
293.50	0.014
293.71	0.014
293.92	0.014
294.13	0.015
294.34	0.015
294.55	0.015
294.76	0.015
294.97	0.015
295.19	0.015
295.40	0.015
295.61	0.015
295.82	0.015
296.03	0.015
296.24	0.015
296.45	0.015
296.66	0.015
296.87	0.015
297.09	0.015
297.30	0.015
297.51	0.015
297.72	0.015
297.93	0.016
298.14	0.016
298.35	0.016
298.56	0.016
298.77	0.016
298.99	0.016
299.20	0.016
299.41	0.016
299.62	0.016
299.83	0.017
300.04	0.017
300.25	0.017
300.46	0.017
300.67	0.017
300.88	0.017
301.10	0.017
301.31	0.017
301.52	0.017
301.73	0.017
301.94	0.017
302.15	0.017
302.36	0.017
302.57	0.017
302.78	0.017
302.99	0.017
303.20	0.017
303.41	0.017
303.63	0.017
303.84	0.017
304.05	0.017
304.26	0.017
304.47	0.017
304.68	0.017
304.89	0.017
305.10	0.018
305.31	0.018
305.52	0.018
305.73	0.018
305.94	0.018
306.15	0.018
306.37	0.018
306.58	0.018
306.79	0.018
307.00	0.018
307.21	0.019
307.42	0.019
307.63	0.019
307.84	0.019
308.05	0.019
308.26	0.019
308.47	0.019
308.68	0.019
308.89	0.019
309.10	0.019
309.31	0.019
309.52	0.019
309.73	0.019
309.95	0.019
310.16	0.019
310.37	0.019
310.58	0.019
310.79	0.019
311.00	0.019
311.21	0.019
311.42	0.019
311.63	0.019
311.84	0.019
312.05	0.019
312.26	0.020
312.47	0.020
312.68	0.020
312.89	0.020
313.10	0.020
313.31	0.020
313.52	0.020
313.73	0.020
313.94	0.020
314.15	0.020
314.36	0.021
314.57	0.021
314.78	0.021
314.99	0.021
315.21	0.021
315.42	0.021
315.63	0.021
315.84	0.021
316.05	0.021
316.26	0.021
316.47	0.021
316.68	0.021
316.89	0.021
317.10	0.021
317.31	0.021
317.52	0.021
317.73	0.021
317.94	0.021
318.15	0.021
318.36	0.021
318.57	0.022
318.78	0.022
318.99	0.022
319.20	0.022
319.41	0.022
319.62	0.022
319.83	0.022
320.04	0.022
320.25	0.022
320.46	0.022
320.67	0.022
320.88	0.022
321.09	0.022
321.30	0.022
321.51	0.022
321.72	0.022
321.93	0.022
322.14	0.022
322.35	0.022
322.56	0.022
322.77	0.022
322.98	0.022
323.19	0.022
323.40	0.022
323.61	0.022
323.82	0.022
324.03	0.022
324.24	0.022
324.45	0.022
324.66	0.022
324.87	0.022
325.08	0.022
325.29	0.022
325.50	0.022
325.71	0.022
325.92	0.022
326.13	0.022
326.34	0.022
326.55	0.022
326.76	0.022
326.97	0.022
327.18	0.022
327.39	0.022
327.60	0.022
327.80	0.022
328.01	0.022
328.22	0.022
328.43	0.022
328.64	0.022
328.85	0.022
329.06	0.022
329.27	0.022
329.48	0.022
329.69	0.022
329.90	0.022
330.11	0.022
330.32	0.022
330.53	0.022
330.74	0.022
330.95	0.021
331.16	0.021
331.37	0.022
331.58	0.021
331.79	0.021
332.00	0.021
332.21	0.021
332.42	0.021
332.63	0.021
332.83	0.021
333.04	0.021
333.25	0.021
333.46	0.021
333.67	0.021
333.88	0.021
334.09	0.020
334.30	0.020
334.51	0.020
334.72	0.020
334.93	0.020
335.14	0.020
335.35	0.020
335.56	0.020
335.77	0.020
335.98	0.020
336.18	0.019
336.39	0.019
336.60	0.019
336.81	0.019
337.02	0.019
337.23	0.019
337.44	0.019
337.65	0.019
337.86	0.018
338.07	0.018
338.28	0.018
338.49	0.018
338.70	0.018
338.91	0.018
339.11	0.017
339.32	0.017
339.53	0.017
339.74	0.017
339.95	0.017
340.16	0.017
340.37	0.017
340.58	0.017
340.79	0.017
341.00	0.016
341.21	0.016
341.41	0.016
341.62	0.016
341.83	0.015
342.04	0.015
342.25	0.015
342.46	0.015
342.67	0.015
342.88	0.014
343.09	0.015
343.30	0.014
343.50	0.014
343.71	0.014
343.92	0.014
344.13	0.014
344.34	0.014
344.55	0.014
344.76	0.014
344.97	0.014
345.18	0.014
345.38	0.014
345.59	0.014
345.80	0.013
346.01	0.013
346.22	0.013
346.43	0.013
346.64	0.013
346.85	0.013
347.06	0.012
347.26	0.012
347.47	0.012
347.68	0.012
347.89	0.012
348.10	0.012
348.31	0.012
348.52	0.012
348.73	0.011
348.93	0.011
349.14	0.011
349.35	0.011
349.56	0.011
349.77	0.011
349.98	0.011
350.19	0.011
350.39	0.011
350.60	0.011
350.81	0.010
351.02	0.010
351.23	0.010
351.44	0.010
351.65	0.010
351.86	0.010
352.06	0.010
352.27	0.010
352.48	0.010
352.69	0.010
352.90	0.010
353.11	0.010
353.31	0.010
353.52	0.010
353.73	0.010
353.94	0.010
354.15	0.009
354.36	0.009
354.57	0.009
354.77	0.009
354.98	0.009
355.19	0.009
355.40	0.009
355.61	0.009
355.82	0.009
356.02	0.009
356.23	0.009
356.44	0.009
356.65	0.009
356.86	0.009
357.07	0.009
357.27	0.009
357.48	0.009
357.69	0.009
357.90	0.009
358.11	0.008
358.32	0.008
358.52	0.008
358.73	0.008
358.94	0.008
359.15	0.008
359.36	0.008
359.56	0.007
359.77	0.007
359.98	0.007
360.19	0.007
360.40	0.007
360.61	0.007
360.81	0.007
361.02	0.007
361.23	0.007
361.44	0.007
361.65	0.007
361.85	0.007
362.06	0.007
362.27	0.007
362.48	0.007
362.69	0.007
362.89	0.007
363.10	0.007
363.31	0.007
363.52	0.007
363.73	0.007
363.93	0.007
364.14	0.007
364.35	0.006
364.56	0.006
364.77	0.006
364.97	0.006
365.18	0.006
365.39	0.006
365.60	0.006
365.81	0.006
366.01	0.006
366.22	0.006
366.43	0.006
366.64	0.006
366.84	0.006
367.05	0.006
367.26	0.006
367.47	0.006
367.68	0.006
367.88	0.006
368.09	0.006
368.30	0.006
368.51	0.006
368.71	0.006
368.92	0.006
369.13	0.006
369.34	0.006
369.55	0.006
369.75	0.006
369.96	0.006
370.17	0.006
370.38	0.006
370.58	0.005
370.79	0.005
371.00	0.005
371.21	0.005
371.41	0.005
371.62	0.005
371.83	0.005
372.04	0.005
372.24	0.005
372.45	0.005
372.66	0.005
372.87	0.005
373.07	0.005
373.28	0.005
373.49	0.005
373.70	0.005
373.90	0.005
374.11	0.005
374.32	0.005
374.53	0.004
374.73	0.004
374.94	0.004
375.15	0.005
375.36	0.005
375.56	0.004
375.77	0.004
375.98	0.004
376.19	0.004
376.39	0.004
376.60	0.004
376.81	0.004
377.02	0.004
377.22	0.004
377.43	0.004
377.64	0.004
377.84	0.004
378.05	0.004
378.26	0.004
378.47	0.004
378.67	0.004
378.88	0.004
379.09	0.004
379.30	0.004
379.50	0.004
379.71	0.004
379.92	0.004
380.12	0.004
380.33	0.004
380.54	0.004
380.75	0.004
380.95	0.004
381.16	0.004
381.37	0.004
381.57	0.004
381.78	0.004
381.99	0.004
382.20	0.004
382.40	0.004
382.61	0.004
382.82	0.004
383.02	0.004
383.23	0.004
383.44	0.004
383.64	0.004
383.85	0.004
384.06	0.004
384.27	0.004
384.47	0.004
384.68	0.004
384.89	0.004
385.09	0.004
385.30	0.003
385.51	0.003
385.71	0.003
385.92	0.003
386.13	0.003
386.33	0.003
386.54	0.003
386.75	0.003
386.95	0.003
387.16	0.003
387.37	0.003
387.58	0.003
387.78	0.003
387.99	0.003
388.20	0.004
388.40	0.004
388.61	0.004
388.82	0.004
389.02	0.003
389.23	0.003
389.44	0.003
389.64	0.003
389.85	0.003
390.06	0.003
390.26	0.003
390.47	0.003
390.68	0.003
390.88	0.003
391.09	0.003
391.30	0.003
391.50	0.003
391.71	0.003
391.92	0.003
392.12	0.003
392.33	0.003
392.53	0.003
392.74	0.003
392.95	0.003
393.15	0.003
393.36	0.003
393.57	0.003
393.77	0.003
393.98	0.003
394.19	0.003
394.39	0.003
394.60	0.003
394.81	0.003
395.01	0.003
395.22	0.003
395.43	0.003
395.63	0.003
395.84	0.002
396.04	0.002
396.25	0.002
396.46	0.002
396.66	0.002
396.87	0.002
397.08	0.002
397.28	0.002
397.49	0.002
397.69	0.002
397.90	0.002
398.11	0.002
398.31	0.002
398.52	0.002
398.73	0.002
398.93	0.002
399.14	0.002
399.34	0.002
399.55	0.002
399.76	0.002
399.96	0.002
400.17	0.002
400.37	0.002
400.58	0.002
400.79	0.002
400.99	0.002
401.20	0.002
401.41	0.002
401.61	0.002
401.82	0.002
402.02	0.002
402.23	0.002
402.44	0.002
402.64	0.002
402.85	0.002
403.05	0.002
403.26	0.002
403.47	0.002
403.67	0.002
403.88	0.002
404.08	0.002
404.29	0.002
404.50	0.002
404.70	0.002
404.91	0.002
405.11	0.002
405.32	0.002
405.52	0.002
405.73	0.001
405.94	0.001
406.14	0.001
406.35	0.001
406.55	0.001
406.76	0.001
406.97	0.001
407.17	0.001
407.38	0.001
407.58	0.001
407.79	0.001
407.99	0.001
408.20	0.001
408.41	0.001
408.61	0.001
408.82	0.001
409.02	0.001
409.23	0.001
409.43	0.001
409.64	0.001
409.84	0.001
410.05	0.002
410.26	0.001
410.46	0.001
410.67	0.001
410.87	0.001
411.08	0.001
411.28	0.001
411.49	0.001
411.69	0.001
411.90	0.001
412.11	0.001
412.31	0.001
412.52	0.001
412.72	0.001
412.93	0.001
413.13	0.001
413.34	0.001
413.54	0.001
413.75	0.001
413.95	0.001
414.16	0.001
414.37	0.001
414.57	0.001
414.78	0.001
414.98	0.001
415.19	0.001
415.39	0.001
415.60	0.001
415.80	0.001
416.01	0.001
416.21	0.001
416.42	0.001
416.62	0.001
416.83	0.001
417.03	0.001
417.24	0.001
417.44	0.001
417.65	0.001
417.86	0.001
418.06	0.000
418.27	0.000
418.47	0.000
418.68	0.000
418.88	0.000
419.09	0.000
419.29	0.000
419.50	0.000
419.70	0.000
419.91	0.000
420.11	0.000
420.32	0.000
420.52	0.000
420.73	0.000
420.93	0.000
421.14	0.000
421.34	0.000
421.55	0.000
421.75	0.000
421.96	0.000
422.16	0.000
422.37	0.000
422.57	0.000
422.78	0.000
422.98	0.000
423.19	0.000
423.39	0.000
423.60	0.000
423.80	0.000
424.01	0.001
424.21	0.001
424.42	0.001
424.62	0.001
424.83	0.001
425.03	0.001
425.23	0.001
425.44	0.000
425.64	0.000
425.85	0.000
426.05	0.001
426.26	0.000
426.46	0.000
426.67	0.000
426.87	0.000
427.08	0.000
427.28	0.000
427.49	0.000
427.69	0.000
427.90	0.000
428.10	0.000
428.31	-0.000
428.51	-0.000
428.71	-0.000
428.92	-0.000
429.12	-0.000
429.33	-0.000
429.53	0.000
429.74	0.000
429.94	0.000
430.15	0.000
430.35	0.000
430.56	0.000
430.76	0.000
430.96	0.000
431.17	0.000
431.37	0.000
431.58	0.000
431.78	0.000
431.99	0.000
432.19	0.000
432.40	0.001
432.60	0.000
432.80	0.000
433.01	0.000
433.21	0.000
433.42	0.000
433.62	0.000
433.83	0.000
434.03	0.000
434.23	0.000
434.44	0.000
434.64	-0.000
434.85	-0.000
435.05	-0.000
435.26	-0.000
435.46	-0.000
435.66	-0.000
435.87	-0.000
436.07	-0.000
436.28	-0.000
436.48	-0.000
436.69	-0.000
436.89	-0.000
437.09	-0.000
437.30	-0.000
437.50	-0.000
437.71	-0.000
437.91	-0.000
438.11	-0.000
438.32	-0.000
438.52	-0.000
438.73	-0.000
438.93	-0.000
439.13	-0.000
439.34	-0.000
439.54	-0.000
439.75	-0.000
439.95	-0.000
440.15	-0.000
440.36	-0.000
440.56	0.000
440.77	-0.000
440.97	0.000
441.17	0.000
441.38	-0.000
441.58	-0.000
441.79	-0.000
441.99	-0.000
442.19	-0.000
442.40	-0.000
442.60	-0.000
442.81	-0.000
443.01	-0.000
443.21	-0.000
443.42	-0.000
443.62	-0.000
443.82	-0.000
444.03	-0.000
444.23	-0.000
444.44	0.000
444.64	-0.000
444.84	-0.000
445.05	-0.000
445.25	-0.000
445.45	-0.000
445.66	-0.000
445.86	-0.000
446.06	-0.000
446.27	-0.000
446.47	-0.000
446.68	-0.000
446.88	-0.000
447.08	-0.000
447.29	-0.000
447.49	-0.000
447.69	-0.000
447.90	-0.000
448.10	-0.000
448.30	-0.000
448.51	-0.000
448.71	-0.000
448.91	-0.000
449.12	-0.000
449.32	-0.000
449.52	-0.000
449.73	-0.000
449.93	0.000
450.14	-0.000
450.34	-0.000
450.54	-0.000
450.75	-0.000
450.95	-0.000
451.15	-0.000
451.36	-0.000
451.56	-0.000
451.76	-0.000
451.97	-0.000
452.17	-0.000
452.37	-0.000
452.58	-0.000
452.78	-0.000
452.98	-0.000
453.19	-0.000
453.39	-0.000
453.59	-0.000
453.79	-0.000
454.00	-0.001
454.20	-0.000
454.40	-0.001
454.61	-0.001
454.81	-0.001
455.01	-0.001
455.22	-0.001
455.42	-0.001
455.62	-0.001
455.83	-0.001
456.03	-0.001
456.23	-0.001
456.44	-0.001
456.64	-0.001
456.84	-0.000
457.04	-0.001
457.25	-0.001
457.45	-0.001
457.65	-0.001
457.86	-0.001
458.06	-0.001
458.26	-0.001
458.47	-0.001
458.67	-0.001
458.87	-0.001
459.07	-0.001
459.28	-0.001
459.48	-0.001
459.68	-0.000
459.89	-0.000
460.09	-0.000
460.29	-0.001
460.49	-0.001
460.70	-0.000
460.90	-0.000
461.10	-0.000
461.31	-0.000
461.51	0.000
