SpectraSuite Data File
++++++++++++++++++++++++++++++++++++
Date: Mon Jun 15 09:16:13 PDT 2015
User: introlabs
Dark Spectrum Present: Yes
Reference Spectrum Present: Yes
Number of Sampled Component Spectra: 1
Spectrometers: USB4H08886
Integration Time (usec): 44366 (USB4H08886)
Spectra Averaged: 20 (USB4H08886)
Boxcar Smoothing: 5 (USB4H08886)
Correct for Electrical Dark: Yes (USB4H08886)
Strobe/Lamp Enabled: No (USB4H08886)
Correct for Detector Non-linearity: Yes (USB4H08886)
Correct for Stray Light: Yes (USB4H08886)
Number of Pixels in Processed Spectrum: 3648
>>>>>Begin Processed Spectral Data<<<<<
178.14	-0.000
178.36	-0.000
178.57	-0.000
178.79	1.016
179.01	-0.684
179.22	-0.000
179.44	-0.000
179.65	-0.000
179.87	-0.000
180.08	-0.000
180.30	0.708
180.52	-0.000
180.73	0.892
180.95	0.304
181.16	0.139
181.38	0.082
181.59	0.048
181.81	0.042
182.03	0.025
182.24	0.007
182.46	0.008
182.67	0.011
182.89	0.013
183.10	0.012
183.32	0.010
183.54	0.003
183.75	0.006
183.97	0.013
184.18	0.012
184.40	0.004
184.61	0.013
184.83	0.008
185.04	0.008
185.26	0.002
185.48	-0.001
185.69	0.002
185.91	0.004
186.12	0.000
186.34	0.002
186.55	-0.014
186.77	-0.011
186.98	-0.018
187.20	-0.019
187.42	-0.010
187.63	-0.005
187.85	-0.004
188.06	-0.003
188.28	0.007
188.49	0.010
188.71	0.004
188.92	0.013
189.14	0.008
189.36	0.014
189.57	0.019
189.79	0.008
190.00	-0.003
190.22	-0.005
190.43	-0.006
190.65	-0.018
190.86	-0.015
191.08	-0.021
191.29	-0.025
191.51	-0.018
191.72	-0.022
191.94	-0.022
192.16	-0.018
192.37	-0.015
192.59	-0.010
192.80	-0.013
193.02	-0.004
193.23	-0.008
193.45	-0.009
193.66	-0.013
193.88	-0.016
194.09	-0.013
194.31	-0.021
194.52	-0.027
194.74	-0.027
194.95	-0.036
195.17	-0.032
195.38	-0.039
195.60	-0.046
195.81	-0.037
196.03	-0.029
196.25	-0.019
196.46	-0.019
196.68	-0.015
196.89	-0.008
197.11	-0.006
197.32	-0.004
197.54	-0.013
197.75	0.004
197.97	0.005
198.18	0.000
198.40	0.010
198.61	-0.002
198.83	-0.010
199.04	-0.010
199.26	-0.013
199.47	-0.019
199.69	-0.015
199.90	-0.001
200.12	-0.016
200.33	-0.011
200.55	-0.012
200.76	-0.020
200.98	-0.017
201.19	-0.017
201.41	-0.020
201.62	-0.014
201.84	-0.008
202.05	-0.007
202.27	-0.012
202.48	-0.008
202.70	-0.012
202.91	-0.013
203.13	-0.010
203.34	-0.019
203.56	-0.016
203.77	-0.010
203.99	-0.021
204.20	-0.020
204.42	-0.017
204.63	-0.019
204.85	-0.022
205.06	-0.019
205.28	-0.011
205.49	-0.012
205.71	0.005
205.92	0.012
206.14	0.008
206.35	0.021
206.56	0.024
206.78	0.020
206.99	0.022
207.21	0.029
207.42	0.029
207.64	0.025
207.85	0.028
208.07	0.026
208.28	0.026
208.50	0.031
208.71	0.029
208.93	0.026
209.14	0.029
209.36	0.023
209.57	0.024
209.79	0.025
210.00	0.028
210.22	0.031
210.43	0.026
210.64	0.026
210.86	0.015
211.07	0.012
211.29	0.005
211.50	0.000
211.72	-0.005
211.93	-0.011
212.15	-0.009
212.36	-0.016
212.58	-0.024
212.79	-0.027
213.01	-0.042
213.22	-0.035
213.43	-0.035
213.65	-0.024
213.86	-0.023
214.08	-0.010
214.29	-0.010
214.51	-0.015
214.72	-0.009
214.94	-0.008
215.15	-0.000
215.36	0.006
215.58	0.008
215.79	0.010
216.01	0.009
216.22	0.012
216.44	0.006
216.65	0.005
216.87	0.007
217.08	-0.001
217.29	0.006
217.51	0.002
217.72	0.001
217.94	0.001
218.15	0.004
218.37	-0.006
218.58	-0.010
218.80	-0.008
219.01	-0.011
219.22	-0.014
219.44	-0.009
219.65	-0.009
219.87	-0.008
220.08	-0.008
220.30	-0.015
220.51	-0.024
220.72	-0.020
220.94	-0.023
221.15	-0.026
221.37	-0.027
221.58	-0.029
221.79	-0.027
222.01	-0.037
222.22	-0.042
222.44	-0.042
222.65	-0.040
222.87	-0.041
223.08	-0.039
223.29	-0.038
223.51	-0.040
223.72	-0.040
223.94	-0.039
224.15	-0.043
224.36	-0.038
224.58	-0.040
224.79	-0.038
225.01	-0.039
225.22	-0.039
225.44	-0.043
225.65	-0.039
225.86	-0.036
226.08	-0.035
226.29	-0.037
226.51	-0.037
226.72	-0.039
226.93	-0.034
227.15	-0.042
227.36	-0.042
227.58	-0.041
227.79	-0.041
228.00	-0.043
228.22	-0.049
228.43	-0.052
228.65	-0.052
228.86	-0.051
229.07	-0.053
229.29	-0.054
229.50	-0.052
229.72	-0.051
229.93	-0.055
230.14	-0.055
230.36	-0.060
230.57	-0.059
230.78	-0.061
231.00	-0.065
231.21	-0.071
231.43	-0.072
231.64	-0.074
231.85	-0.075
232.07	-0.077
232.28	-0.077
232.50	-0.080
232.71	-0.080
232.92	-0.080
233.14	-0.081
233.35	-0.079
233.56	-0.079
233.78	-0.080
233.99	-0.083
234.21	-0.082
234.42	-0.082
234.63	-0.082
234.85	-0.082
235.06	-0.083
235.27	-0.083
235.49	-0.081
235.70	-0.083
235.91	-0.082
236.13	-0.082
236.34	-0.081
236.56	-0.082
236.77	-0.082
236.98	-0.082
237.20	-0.082
237.41	-0.081
237.62	-0.081
237.84	-0.082
238.05	-0.081
238.26	-0.081
238.48	-0.080
238.69	-0.079
238.91	-0.079
239.12	-0.079
239.33	-0.079
239.55	-0.077
239.76	-0.077
239.97	-0.076
240.19	-0.074
240.40	-0.074
240.61	-0.073
240.83	-0.072
241.04	-0.072
241.25	-0.072
241.47	-0.070
241.68	-0.068
241.89	-0.068
242.11	-0.067
242.32	-0.067
242.53	-0.067
242.75	-0.066
242.96	-0.065
243.17	-0.064
243.39	-0.063
243.60	-0.062
243.81	-0.063
244.03	-0.062
244.24	-0.062
244.45	-0.061
244.67	-0.060
244.88	-0.058
245.09	-0.057
245.31	-0.057
245.52	-0.057
245.73	-0.056
245.95	-0.056
246.16	-0.055
246.37	-0.054
246.59	-0.054
246.80	-0.054
247.01	-0.053
247.23	-0.053
247.44	-0.054
247.65	-0.053
247.87	-0.052
248.08	-0.052
248.29	-0.052
248.51	-0.051
248.72	-0.051
248.93	-0.050
249.15	-0.049
249.36	-0.049
249.57	-0.049
249.78	-0.049
250.00	-0.048
250.21	-0.048
250.42	-0.047
250.64	-0.047
250.85	-0.046
251.06	-0.046
251.28	-0.045
251.49	-0.045
251.70	-0.046
251.92	-0.045
252.13	-0.044
252.34	-0.044
252.55	-0.044
252.77	-0.044
252.98	-0.044
253.19	-0.044
253.41	-0.043
253.62	-0.043
253.83	-0.042
254.05	-0.042
254.26	-0.042
254.47	-0.042
254.68	-0.042
254.90	-0.042
255.11	-0.041
255.32	-0.041
255.54	-0.041
255.75	-0.041
255.96	-0.041
256.17	-0.041
256.39	-0.041
256.60	-0.041
256.81	-0.040
257.03	-0.040
257.24	-0.040
257.45	-0.040
257.66	-0.040
257.88	-0.040
258.09	-0.040
258.30	-0.040
258.51	-0.040
258.73	-0.040
258.94	-0.040
259.15	-0.040
259.37	-0.040
259.58	-0.040
259.79	-0.040
260.00	-0.040
260.22	-0.040
260.43	-0.040
260.64	-0.040
260.85	-0.040
261.07	-0.040
261.28	-0.040
261.49	-0.040
261.71	-0.040
261.92	-0.040
262.13	-0.040
262.34	-0.040
262.56	-0.040
262.77	-0.040
262.98	-0.040
263.19	-0.040
263.41	-0.040
263.62	-0.041
263.83	-0.041
264.04	-0.041
264.26	-0.041
264.47	-0.041
264.68	-0.042
264.89	-0.042
265.11	-0.042
265.32	-0.042
265.53	-0.042
265.74	-0.042
265.96	-0.042
266.17	-0.042
266.38	-0.042
266.59	-0.042
266.81	-0.042
267.02	-0.043
267.23	-0.043
267.44	-0.043
267.65	-0.043
267.87	-0.044
268.08	-0.044
268.29	-0.044
268.50	-0.044
268.72	-0.045
268.93	-0.045
269.14	-0.045
269.35	-0.045
269.57	-0.045
269.78	-0.046
269.99	-0.046
270.20	-0.045
270.41	-0.045
270.63	-0.046
270.84	-0.046
271.05	-0.047
271.26	-0.047
271.48	-0.047
271.69	-0.047
271.90	-0.047
272.11	-0.048
272.32	-0.048
272.54	-0.049
272.75	-0.049
272.96	-0.049
273.17	-0.049
273.39	-0.049
273.60	-0.049
273.81	-0.049
274.02	-0.049
274.23	-0.049
274.45	-0.049
274.66	-0.049
274.87	-0.049
275.08	-0.049
275.29	-0.050
275.51	-0.049
275.72	-0.050
275.93	-0.050
276.14	-0.050
276.35	-0.049
276.57	-0.050
276.78	-0.049
276.99	-0.049
277.20	-0.049
277.41	-0.049
277.63	-0.049
277.84	-0.049
278.05	-0.049
278.26	-0.048
278.47	-0.048
278.69	-0.048
278.90	-0.048
279.11	-0.048
279.32	-0.047
279.53	-0.047
279.74	-0.047
279.96	-0.047
280.17	-0.046
280.38	-0.046
280.59	-0.046
280.80	-0.046
281.02	-0.045
281.23	-0.045
281.44	-0.045
281.65	-0.045
281.86	-0.045
282.07	-0.045
282.29	-0.044
282.50	-0.044
282.71	-0.044
282.92	-0.043
283.13	-0.043
283.35	-0.043
283.56	-0.043
283.77	-0.043
283.98	-0.042
284.19	-0.042
284.40	-0.042
284.62	-0.041
284.83	-0.041
285.04	-0.040
285.25	-0.040
285.46	-0.039
285.67	-0.038
285.88	-0.038
286.10	-0.037
286.31	-0.037
286.52	-0.036
286.73	-0.035
286.94	-0.035
287.15	-0.034
287.37	-0.033
287.58	-0.032
287.79	-0.032
288.00	-0.031
288.21	-0.030
288.42	-0.030
288.63	-0.029
288.85	-0.029
289.06	-0.028
289.27	-0.027
289.48	-0.027
289.69	-0.026
289.90	-0.026
290.11	-0.025
290.33	-0.025
290.54	-0.024
290.75	-0.024
290.96	-0.024
291.17	-0.023
291.38	-0.023
291.59	-0.022
291.81	-0.022
292.02	-0.021
292.23	-0.021
292.44	-0.021
292.65	-0.020
292.86	-0.020
293.07	-0.019
293.28	-0.019
293.50	-0.019
293.71	-0.019
293.92	-0.018
294.13	-0.018
294.34	-0.018
294.55	-0.018
294.76	-0.017
294.97	-0.017
295.19	-0.017
295.40	-0.017
295.61	-0.017
295.82	-0.017
296.03	-0.017
296.24	-0.017
296.45	-0.017
296.66	-0.017
296.87	-0.017
297.09	-0.017
297.30	-0.016
297.51	-0.016
297.72	-0.016
297.93	-0.016
298.14	-0.016
298.35	-0.016
298.56	-0.016
298.77	-0.015
298.99	-0.015
299.20	-0.015
299.41	-0.015
299.62	-0.015
299.83	-0.015
300.04	-0.015
300.25	-0.014
300.46	-0.014
300.67	-0.014
300.88	-0.014
301.10	-0.014
301.31	-0.014
301.52	-0.014
301.73	-0.014
301.94	-0.014
302.15	-0.014
302.36	-0.014
302.57	-0.014
302.78	-0.014
302.99	-0.014
303.20	-0.014
303.41	-0.014
303.63	-0.014
303.84	-0.014
304.05	-0.014
304.26	-0.014
304.47	-0.014
304.68	-0.013
304.89	-0.013
305.10	-0.013
305.31	-0.013
305.52	-0.013
305.73	-0.013
305.94	-0.013
306.15	-0.013
306.37	-0.013
306.58	-0.013
306.79	-0.013
307.00	-0.012
307.21	-0.012
307.42	-0.012
307.63	-0.012
307.84	-0.012
308.05	-0.012
308.26	-0.012
308.47	-0.012
308.68	-0.012
308.89	-0.012
309.10	-0.012
309.31	-0.012
309.52	-0.012
309.73	-0.012
309.95	-0.012
310.16	-0.012
310.37	-0.012
310.58	-0.012
310.79	-0.012
311.00	-0.012
311.21	-0.012
311.42	-0.012
311.63	-0.012
311.84	-0.012
312.05	-0.012
312.26	-0.012
312.47	-0.012
312.68	-0.011
312.89	-0.011
313.10	-0.011
313.31	-0.011
313.52	-0.011
313.73	-0.011
313.94	-0.011
314.15	-0.011
314.36	-0.011
314.57	-0.011
314.78	-0.010
314.99	-0.011
315.21	-0.010
315.42	-0.010
315.63	-0.010
315.84	-0.010
316.05	-0.010
316.26	-0.010
316.47	-0.010
316.68	-0.010
316.89	-0.010
317.10	-0.010
317.31	-0.010
317.52	-0.010
317.73	-0.010
317.94	-0.010
318.15	-0.010
318.36	-0.010
318.57	-0.010
318.78	-0.009
318.99	-0.009
319.20	-0.009
319.41	-0.009
319.62	-0.009
319.83	-0.009
320.04	-0.009
320.25	-0.009
320.46	-0.009
320.67	-0.009
320.88	-0.009
321.09	-0.009
321.30	-0.009
321.51	-0.009
321.72	-0.009
321.93	-0.009
322.14	-0.009
322.35	-0.009
322.56	-0.009
322.77	-0.009
322.98	-0.009
323.19	-0.009
323.40	-0.009
323.61	-0.009
323.82	-0.009
324.03	-0.008
324.24	-0.008
324.45	-0.008
324.66	-0.008
324.87	-0.008
325.08	-0.008
325.29	-0.008
325.50	-0.008
325.71	-0.008
325.92	-0.008
326.13	-0.008
326.34	-0.008
326.55	-0.008
326.76	-0.008
326.97	-0.008
327.18	-0.008
327.39	-0.008
327.60	-0.008
327.80	-0.008
328.01	-0.008
328.22	-0.008
328.43	-0.008
328.64	-0.008
328.85	-0.008
329.06	-0.008
329.27	-0.008
329.48	-0.008
329.69	-0.008
329.90	-0.008
330.11	-0.008
330.32	-0.008
330.53	-0.008
330.74	-0.008
330.95	-0.008
331.16	-0.008
331.37	-0.008
331.58	-0.008
331.79	-0.008
332.00	-0.008
332.21	-0.008
332.42	-0.008
332.63	-0.008
332.83	-0.008
333.04	-0.008
333.25	-0.008
333.46	-0.008
333.67	-0.008
333.88	-0.008
334.09	-0.008
334.30	-0.008
334.51	-0.008
334.72	-0.008
334.93	-0.008
335.14	-0.008
335.35	-0.008
335.56	-0.008
335.77	-0.008
335.98	-0.008
336.18	-0.008
336.39	-0.008
336.60	-0.008
336.81	-0.008
337.02	-0.008
337.23	-0.008
337.44	-0.008
337.65	-0.008
337.86	-0.008
338.07	-0.008
338.28	-0.008
338.49	-0.008
338.70	-0.008
338.91	-0.008
339.11	-0.008
339.32	-0.008
339.53	-0.008
339.74	-0.008
339.95	-0.008
340.16	-0.008
340.37	-0.008
340.58	-0.008
340.79	-0.008
341.00	-0.008
341.21	-0.008
341.41	-0.008
341.62	-0.008
341.83	-0.009
342.04	-0.009
342.25	-0.009
342.46	-0.009
342.67	-0.009
342.88	-0.009
343.09	-0.009
343.30	-0.009
343.50	-0.009
343.71	-0.009
343.92	-0.009
344.13	-0.009
344.34	-0.009
344.55	-0.009
344.76	-0.009
344.97	-0.009
345.18	-0.009
345.38	-0.009
345.59	-0.009
345.80	-0.009
346.01	-0.009
346.22	-0.009
346.43	-0.008
346.64	-0.008
346.85	-0.008
347.06	-0.008
347.26	-0.008
347.47	-0.008
347.68	-0.008
347.89	-0.009
348.10	-0.009
348.31	-0.009
348.52	-0.009
348.73	-0.009
348.93	-0.009
349.14	-0.009
349.35	-0.009
349.56	-0.009
349.77	-0.009
349.98	-0.009
350.19	-0.009
350.39	-0.009
350.60	-0.009
350.81	-0.009
351.02	-0.009
351.23	-0.009
351.44	-0.009
351.65	-0.009
351.86	-0.009
352.06	-0.009
352.27	-0.009
352.48	-0.009
352.69	-0.009
352.90	-0.009
353.11	-0.009
353.31	-0.009
353.52	-0.009
353.73	-0.009
353.94	-0.009
354.15	-0.009
354.36	-0.009
354.57	-0.009
354.77	-0.009
354.98	-0.009
355.19	-0.009
355.40	-0.009
355.61	-0.009
355.82	-0.009
356.02	-0.008
356.23	-0.008
356.44	-0.008
356.65	-0.008
356.86	-0.008
357.07	-0.008
357.27	-0.008
357.48	-0.008
357.69	-0.008
357.90	-0.008
358.11	-0.008
358.32	-0.008
358.52	-0.009
358.73	-0.009
358.94	-0.009
359.15	-0.008
359.36	-0.008
359.56	-0.009
359.77	-0.008
359.98	-0.008
360.19	-0.008
360.40	-0.008
360.61	-0.008
360.81	-0.008
361.02	-0.008
361.23	-0.008
361.44	-0.008
361.65	-0.008
361.85	-0.008
362.06	-0.008
362.27	-0.008
362.48	-0.008
362.69	-0.008
362.89	-0.008
363.10	-0.008
363.31	-0.008
363.52	-0.008
363.73	-0.008
363.93	-0.008
364.14	-0.008
364.35	-0.008
364.56	-0.008
364.77	-0.008
364.97	-0.008
365.18	-0.008
365.39	-0.008
365.60	-0.008
365.81	-0.008
366.01	-0.008
366.22	-0.008
366.43	-0.009
366.64	-0.009
366.84	-0.008
367.05	-0.008
367.26	-0.008
367.47	-0.008
367.68	-0.008
367.88	-0.008
368.09	-0.008
368.30	-0.008
368.51	-0.008
368.71	-0.008
368.92	-0.008
369.13	-0.008
369.34	-0.008
369.55	-0.008
369.75	-0.008
369.96	-0.008
370.17	-0.008
370.38	-0.007
370.58	-0.008
370.79	-0.008
371.00	-0.008
371.21	-0.007
371.41	-0.007
371.62	-0.008
371.83	-0.008
372.04	-0.008
372.24	-0.008
372.45	-0.008
372.66	-0.008
372.87	-0.008
373.07	-0.008
373.28	-0.008
373.49	-0.008
373.70	-0.008
373.90	-0.008
374.11	-0.008
374.32	-0.008
374.53	-0.008
374.73	-0.008
374.94	-0.008
375.15	-0.008
375.36	-0.008
375.56	-0.008
375.77	-0.008
375.98	-0.008
376.19	-0.008
376.39	-0.008
376.60	-0.008
376.81	-0.008
377.02	-0.008
377.22	-0.008
377.43	-0.008
377.64	-0.008
377.84	-0.008
378.05	-0.008
378.26	-0.008
378.47	-0.008
378.67	-0.008
378.88	-0.008
379.09	-0.008
379.30	-0.008
379.50	-0.008
379.71	-0.008
379.92	-0.008
380.12	-0.008
380.33	-0.008
380.54	-0.008
380.75	-0.008
380.95	-0.008
381.16	-0.008
381.37	-0.008
381.57	-0.008
381.78	-0.008
381.99	-0.008
382.20	-0.008
382.40	-0.008
382.61	-0.007
382.82	-0.008
383.02	-0.008
383.23	-0.007
383.44	-0.007
383.64	-0.007
383.85	-0.007
384.06	-0.007
384.27	-0.007
384.47	-0.007
384.68	-0.007
384.89	-0.007
385.09	-0.007
385.30	-0.008
385.51	-0.008
385.71	-0.008
385.92	-0.008
386.13	-0.008
386.33	-0.008
386.54	-0.008
386.75	-0.008
386.95	-0.008
387.16	-0.008
387.37	-0.008
387.58	-0.008
387.78	-0.008
387.99	-0.008
388.20	-0.008
388.40	-0.007
388.61	-0.007
388.82	-0.008
389.02	-0.008
389.23	-0.008
389.44	-0.007
389.64	-0.007
389.85	-0.007
390.06	-0.007
390.26	-0.007
390.47	-0.008
390.68	-0.008
390.88	-0.008
391.09	-0.008
391.30	-0.008
391.50	-0.008
391.71	-0.008
391.92	-0.008
392.12	-0.008
392.33	-0.008
392.53	-0.008
392.74	-0.008
392.95	-0.008
393.15	-0.008
393.36	-0.008
393.57	-0.008
393.77	-0.008
393.98	-0.007
394.19	-0.007
394.39	-0.007
394.60	-0.007
394.81	-0.007
395.01	-0.008
395.22	-0.008
395.43	-0.008
395.63	-0.008
395.84	-0.008
396.04	-0.008
396.25	-0.008
396.46	-0.008
396.66	-0.008
396.87	-0.008
397.08	-0.008
397.28	-0.008
397.49	-0.008
397.69	-0.008
397.90	-0.008
398.11	-0.007
398.31	-0.008
398.52	-0.008
398.73	-0.008
398.93	-0.008
399.14	-0.008
399.34	-0.008
399.55	-0.008
399.76	-0.008
399.96	-0.008
400.17	-0.007
400.37	-0.007
400.58	-0.007
400.79	-0.007
400.99	-0.007
401.20	-0.007
401.41	-0.007
401.61	-0.007
401.82	-0.007
402.02	-0.007
402.23	-0.007
402.44	-0.007
402.64	-0.007
402.85	-0.007
403.05	-0.007
403.26	-0.007
403.47	-0.007
403.67	-0.007
403.88	-0.007
404.08	-0.007
404.29	-0.008
404.50	-0.008
404.70	-0.007
404.91	-0.007
405.11	-0.007
405.32	-0.007
405.52	-0.008
405.73	-0.008
405.94	-0.008
406.14	-0.008
406.35	-0.008
406.55	-0.008
406.76	-0.008
406.97	-0.008
407.17	-0.008
407.38	-0.008
407.58	-0.008
407.79	-0.008
407.99	-0.008
408.20	-0.008
408.41	-0.008
408.61	-0.008
408.82	-0.008
409.02	-0.007
409.23	-0.007
409.43	-0.007
409.64	-0.008
409.84	-0.007
410.05	-0.007
410.26	-0.007
410.46	-0.007
410.67	-0.008
410.87	-0.008
411.08	-0.008
411.28	-0.008
411.49	-0.007
411.69	-0.008
411.90	-0.007
412.11	-0.007
412.31	-0.007
412.52	-0.007
412.72	-0.008
412.93	-0.008
413.13	-0.008
413.34	-0.008
413.54	-0.008
413.75	-0.008
413.95	-0.008
414.16	-0.008
414.37	-0.008
414.57	-0.008
414.78	-0.007
414.98	-0.007
415.19	-0.007
415.39	-0.007
415.60	-0.007
415.80	-0.007
416.01	-0.008
416.21	-0.008
416.42	-0.008
416.62	-0.008
416.83	-0.008
417.03	-0.008
417.24	-0.008
417.44	-0.008
417.65	-0.008
417.86	-0.008
418.06	-0.008
418.27	-0.008
418.47	-0.008
418.68	-0.008
418.88	-0.008
419.09	-0.008
419.29	-0.008
419.50	-0.008
419.70	-0.008
419.91	-0.008
420.11	-0.008
420.32	-0.008
420.52	-0.008
420.73	-0.008
420.93	-0.008
421.14	-0.008
421.34	-0.008
421.55	-0.008
421.75	-0.008
421.96	-0.008
422.16	-0.008
422.37	-0.008
422.57	-0.008
422.78	-0.008
422.98	-0.008
423.19	-0.008
423.39	-0.007
423.60	-0.007
423.80	-0.007
424.01	-0.007
424.21	-0.007
424.42	-0.007
424.62	-0.007
424.83	-0.007
425.03	-0.007
425.23	-0.007
425.44	-0.007
425.64	-0.007
425.85	-0.007
426.05	-0.007
426.26	-0.007
426.46	-0.007
426.67	-0.007
426.87	-0.008
427.08	-0.008
427.28	-0.008
427.49	-0.008
427.69	-0.008
427.90	-0.008
428.10	-0.008
428.31	-0.008
428.51	-0.008
428.71	-0.008
428.92	-0.008
429.12	-0.008
429.33	-0.008
429.53	-0.008
429.74	-0.008
429.94	-0.008
430.15	-0.008
430.35	-0.008
430.56	-0.008
430.76	-0.008
430.96	-0.007
431.17	-0.007
431.37	-0.007
431.58	-0.007
431.78	-0.007
431.99	-0.007
432.19	-0.007
432.40	-0.007
432.60	-0.007
432.80	-0.007
433.01	-0.007
433.21	-0.007
433.42	-0.007
433.62	-0.007
433.83	-0.007
434.03	-0.007
434.23	-0.007
434.44	-0.007
434.64	-0.007
434.85	-0.007
435.05	-0.007
435.26	-0.007
435.46	-0.007
435.66	-0.007
435.87	-0.007
436.07	-0.007
436.28	-0.007
436.48	-0.007
436.69	-0.007
436.89	-0.008
437.09	-0.008
437.30	-0.008
437.50	-0.008
437.71	-0.007
437.91	-0.007
438.11	-0.007
438.32	-0.007
438.52	-0.007
438.73	-0.007
438.93	-0.007
439.13	-0.007
439.34	-0.007
439.54	-0.007
439.75	-0.007
439.95	-0.007
440.15	-0.007
440.36	-0.007
440.56	-0.007
440.77	-0.007
440.97	-0.007
441.17	-0.007
441.38	-0.007
441.58	-0.007
441.79	-0.007
441.99	-0.007
442.19	-0.007
442.40	-0.007
442.60	-0.007
442.81	-0.007
443.01	-0.007
443.21	-0.007
443.42	-0.007
443.62	-0.007
443.82	-0.007
444.03	-0.007
444.23	-0.007
444.44	-0.007
444.64	-0.007
444.84	-0.007
445.05	-0.007
445.25	-0.007
445.45	-0.007
445.66	-0.007
445.86	-0.007
446.06	-0.007
446.27	-0.007
446.47	-0.007
446.68	-0.007
446.88	-0.007
447.08	-0.007
447.29	-0.007
447.49	-0.007
447.69	-0.007
447.90	-0.007
448.10	-0.007
448.30	-0.007
448.51	-0.007
448.71	-0.007
448.91	-0.007
449.12	-0.007
449.32	-0.007
449.52	-0.007
449.73	-0.007
449.93	-0.007
450.14	-0.007
450.34	-0.007
