SpectraSuite Data File
++++++++++++++++++++++++++++++++++++
Date: Mon Jun 15 08:59:45 PDT 2015
User: introlabs
Dark Spectrum Present: Yes
Reference Spectrum Present: Yes
Number of Sampled Component Spectra: 1
Spectrometers: USB4H08886
Integration Time (usec): 44366 (USB4H08886)
Spectra Averaged: 20 (USB4H08886)
Boxcar Smoothing: 5 (USB4H08886)
Correct for Electrical Dark: Yes (USB4H08886)
Strobe/Lamp Enabled: No (USB4H08886)
Correct for Detector Non-linearity: Yes (USB4H08886)
Correct for Stray Light: Yes (USB4H08886)
Number of Pixels in Processed Spectrum: 3648
>>>>>Begin Processed Spectral Data<<<<<
178.14	-0.000
178.36	-0.000
178.57	-0.000
178.79	1.796
179.01	-0.664
179.22	1.169
179.44	1.735
179.65	0.082
179.87	0.338
180.08	0.398
180.30	0.314
180.52	0.576
180.73	0.255
180.95	0.091
181.16	0.043
181.38	0.020
181.59	0.004
181.81	0.008
182.03	0.024
182.24	0.044
182.46	0.041
182.67	0.033
182.89	0.036
183.10	0.039
183.32	0.036
183.54	0.021
183.75	0.020
183.97	0.025
184.18	0.023
184.40	0.012
184.61	0.004
184.83	0.004
185.04	0.005
185.26	0.009
185.48	-0.004
185.69	0.000
185.91	0.016
186.12	0.019
186.34	0.024
186.55	0.017
186.77	0.022
186.98	0.025
187.20	0.020
187.42	0.029
187.63	0.024
187.85	0.031
188.06	0.026
188.28	0.022
188.49	0.023
188.71	0.020
188.92	0.023
189.14	0.023
189.36	0.026
189.57	0.028
189.79	0.016
190.00	0.015
190.22	0.020
190.43	0.021
190.65	0.008
190.86	0.013
191.08	0.011
191.29	0.018
191.51	0.012
191.72	0.005
191.94	0.004
192.16	0.009
192.37	0.011
192.59	0.006
192.80	0.006
193.02	0.016
193.23	0.009
193.45	0.006
193.66	-0.002
193.88	-0.001
194.09	-0.002
194.31	-0.002
194.52	-0.006
194.74	-0.011
194.95	-0.017
195.17	-0.007
195.38	-0.010
195.60	-0.015
195.81	-0.004
196.03	-0.010
196.25	0.003
196.46	0.000
196.68	-0.003
196.89	0.005
197.11	0.009
197.32	0.004
197.54	-0.004
197.75	0.006
197.97	0.013
198.18	0.002
198.40	0.010
198.61	-0.003
198.83	-0.002
199.04	0.003
199.26	-0.001
199.47	-0.006
199.69	0.010
199.90	0.017
200.12	0.010
200.33	0.007
200.55	0.013
200.76	0.004
200.98	0.010
201.19	0.011
201.41	0.006
201.62	0.009
201.84	0.016
202.05	0.012
202.27	0.006
202.48	0.005
202.70	0.007
202.91	0.005
203.13	0.010
203.34	0.002
203.56	0.002
203.77	0.005
203.99	-0.001
204.20	-0.010
204.42	-0.012
204.63	-0.014
204.85	-0.016
205.06	-0.015
205.28	-0.006
205.49	-0.005
205.71	0.008
205.92	0.018
206.14	0.014
206.35	0.019
206.56	0.032
206.78	0.027
206.99	0.032
207.21	0.038
207.42	0.038
207.64	0.029
207.85	0.029
208.07	0.022
208.28	0.015
208.50	0.018
208.71	0.017
208.93	0.016
209.14	0.023
209.36	0.021
209.57	0.021
209.79	0.022
210.00	0.024
210.22	0.027
210.43	0.023
210.64	0.025
210.86	0.020
211.07	0.017
211.29	0.011
211.50	0.007
211.72	0.003
211.93	0.003
212.15	-0.003
212.36	-0.012
212.58	-0.011
212.79	-0.012
213.01	-0.014
213.22	-0.016
213.43	-0.019
213.65	-0.018
213.86	-0.018
214.08	-0.009
214.29	-0.008
214.51	-0.006
214.72	-0.001
214.94	-0.007
215.15	-0.001
215.36	0.003
215.58	0.006
215.79	0.011
216.01	0.014
216.22	0.021
216.44	0.012
216.65	0.007
216.87	0.011
217.08	0.006
217.29	0.016
217.51	0.015
217.72	0.009
217.94	0.015
218.15	0.016
218.37	0.010
218.58	0.004
218.80	0.014
219.01	0.013
219.22	0.010
219.44	0.015
219.65	0.008
219.87	0.007
220.08	0.008
220.30	-0.001
220.51	-0.006
220.72	-0.007
220.94	-0.010
221.15	-0.017
221.37	-0.019
221.58	-0.015
221.79	-0.011
222.01	-0.016
222.22	-0.021
222.44	-0.023
222.65	-0.023
222.87	-0.017
223.08	-0.015
223.29	-0.015
223.51	-0.014
223.72	-0.017
223.94	-0.024
224.15	-0.025
224.36	-0.022
224.58	-0.025
224.79	-0.018
225.01	-0.018
225.22	-0.021
225.44	-0.021
225.65	-0.018
225.86	-0.016
226.08	-0.012
226.29	-0.010
226.51	-0.011
226.72	-0.007
226.93	-0.003
227.15	-0.008
227.36	-0.007
227.58	-0.010
227.79	-0.007
228.00	-0.009
228.22	-0.016
228.43	-0.017
228.65	-0.019
228.86	-0.019
229.07	-0.023
229.29	-0.023
229.50	-0.026
229.72	-0.027
229.93	-0.027
230.14	-0.030
230.36	-0.031
230.57	-0.030
230.78	-0.030
231.00	-0.032
231.21	-0.037
231.43	-0.035
231.64	-0.036
231.85	-0.033
232.07	-0.035
232.28	-0.034
232.50	-0.036
232.71	-0.039
232.92	-0.038
233.14	-0.042
233.35	-0.039
233.56	-0.037
233.78	-0.039
233.99	-0.041
234.21	-0.041
234.42	-0.039
234.63	-0.039
234.85	-0.037
235.06	-0.037
235.27	-0.038
235.49	-0.036
235.70	-0.038
235.91	-0.039
236.13	-0.038
236.34	-0.038
236.56	-0.040
236.77	-0.041
236.98	-0.041
237.20	-0.042
237.41	-0.040
237.62	-0.039
237.84	-0.040
238.05	-0.040
238.26	-0.040
238.48	-0.040
238.69	-0.039
238.91	-0.038
239.12	-0.038
239.33	-0.037
239.55	-0.036
239.76	-0.036
239.97	-0.036
240.19	-0.035
240.40	-0.035
240.61	-0.034
240.83	-0.033
241.04	-0.033
241.25	-0.033
241.47	-0.032
241.68	-0.030
241.89	-0.030
242.11	-0.029
242.32	-0.028
242.53	-0.027
242.75	-0.026
242.96	-0.025
243.17	-0.025
243.39	-0.024
243.60	-0.023
243.81	-0.024
244.03	-0.024
244.24	-0.023
244.45	-0.023
244.67	-0.022
244.88	-0.021
245.09	-0.021
245.31	-0.021
245.52	-0.021
245.73	-0.021
245.95	-0.020
246.16	-0.019
246.37	-0.019
246.59	-0.018
246.80	-0.019
247.01	-0.018
247.23	-0.018
247.44	-0.018
247.65	-0.018
247.87	-0.017
248.08	-0.017
248.29	-0.017
248.51	-0.017
248.72	-0.017
248.93	-0.016
249.15	-0.016
249.36	-0.016
249.57	-0.016
249.78	-0.015
250.00	-0.015
250.21	-0.015
250.42	-0.014
250.64	-0.014
250.85	-0.013
251.06	-0.013
251.28	-0.013
251.49	-0.013
251.70	-0.013
251.92	-0.012
252.13	-0.011
252.34	-0.011
252.55	-0.011
252.77	-0.011
252.98	-0.011
253.19	-0.011
253.41	-0.011
253.62	-0.010
253.83	-0.010
254.05	-0.010
254.26	-0.010
254.47	-0.010
254.68	-0.010
254.90	-0.010
255.11	-0.010
255.32	-0.010
255.54	-0.009
255.75	-0.010
255.96	-0.009
256.17	-0.010
256.39	-0.009
256.60	-0.009
256.81	-0.009
257.03	-0.009
257.24	-0.009
257.45	-0.009
257.66	-0.009
257.88	-0.009
258.09	-0.009
258.30	-0.009
258.51	-0.009
258.73	-0.009
258.94	-0.009
259.15	-0.009
259.37	-0.010
259.58	-0.010
259.79	-0.010
260.00	-0.010
260.22	-0.010
260.43	-0.010
260.64	-0.010
260.85	-0.011
261.07	-0.010
261.28	-0.010
261.49	-0.010
261.71	-0.010
261.92	-0.011
262.13	-0.011
262.34	-0.011
262.56	-0.011
262.77	-0.010
262.98	-0.010
263.19	-0.010
263.41	-0.011
263.62	-0.011
263.83	-0.012
264.04	-0.012
264.26	-0.012
264.47	-0.013
264.68	-0.013
264.89	-0.013
265.11	-0.013
265.32	-0.013
265.53	-0.013
265.74	-0.013
265.96	-0.013
266.17	-0.013
266.38	-0.013
266.59	-0.013
266.81	-0.013
267.02	-0.013
267.23	-0.014
267.44	-0.014
267.65	-0.015
267.87	-0.015
268.08	-0.015
268.29	-0.015
268.50	-0.016
268.72	-0.016
268.93	-0.016
269.14	-0.016
269.35	-0.016
269.57	-0.016
269.78	-0.016
269.99	-0.016
270.20	-0.016
270.41	-0.016
270.63	-0.016
270.84	-0.017
271.05	-0.017
271.26	-0.017
271.48	-0.017
271.69	-0.018
271.90	-0.018
272.11	-0.018
272.32	-0.019
272.54	-0.019
272.75	-0.019
272.96	-0.019
273.17	-0.019
273.39	-0.019
273.60	-0.020
273.81	-0.020
274.02	-0.020
274.23	-0.020
274.45	-0.020
274.66	-0.020
274.87	-0.020
275.08	-0.021
275.29	-0.021
275.51	-0.021
275.72	-0.021
275.93	-0.021
276.14	-0.020
276.35	-0.020
276.57	-0.020
276.78	-0.020
276.99	-0.020
277.20	-0.020
277.41	-0.020
277.63	-0.020
277.84	-0.019
278.05	-0.019
278.26	-0.019
278.47	-0.019
278.69	-0.019
278.90	-0.019
279.11	-0.019
279.32	-0.018
279.53	-0.018
279.74	-0.018
279.96	-0.018
280.17	-0.017
280.38	-0.017
280.59	-0.017
280.80	-0.017
281.02	-0.017
281.23	-0.017
281.44	-0.016
281.65	-0.016
281.86	-0.016
282.07	-0.016
282.29	-0.016
282.50	-0.016
282.71	-0.016
282.92	-0.016
283.13	-0.015
283.35	-0.015
283.56	-0.015
283.77	-0.015
283.98	-0.014
284.19	-0.014
284.40	-0.014
284.62	-0.014
284.83	-0.014
285.04	-0.013
285.25	-0.013
285.46	-0.012
285.67	-0.012
285.88	-0.011
286.10	-0.011
286.31	-0.010
286.52	-0.010
286.73	-0.009
286.94	-0.009
287.15	-0.008
287.37	-0.007
287.58	-0.007
287.79	-0.006
288.00	-0.006
288.21	-0.005
288.42	-0.005
288.63	-0.004
288.85	-0.004
289.06	-0.003
289.27	-0.003
289.48	-0.003
289.69	-0.002
289.90	-0.002
290.11	-0.001
290.33	-0.001
290.54	-0.000
290.75	-0.000
290.96	0.000
291.17	0.001
291.38	0.001
291.59	0.001
291.81	0.002
292.02	0.002
292.23	0.002
292.44	0.002
292.65	0.003
292.86	0.003
293.07	0.003
293.28	0.003
293.50	0.004
293.71	0.004
293.92	0.004
294.13	0.004
294.34	0.004
294.55	0.004
294.76	0.005
294.97	0.005
295.19	0.005
295.40	0.005
295.61	0.005
295.82	0.005
296.03	0.005
296.24	0.005
296.45	0.005
296.66	0.005
296.87	0.005
297.09	0.005
297.30	0.005
297.51	0.005
297.72	0.005
297.93	0.005
298.14	0.006
298.35	0.006
298.56	0.005
298.77	0.005
298.99	0.006
299.20	0.006
299.41	0.006
299.62	0.006
299.83	0.006
300.04	0.006
300.25	0.006
300.46	0.006
300.67	0.006
300.88	0.006
301.10	0.006
301.31	0.006
301.52	0.006
301.73	0.006
301.94	0.006
302.15	0.006
302.36	0.006
302.57	0.006
302.78	0.006
302.99	0.006
303.20	0.006
303.41	0.006
303.63	0.006
303.84	0.006
304.05	0.006
304.26	0.006
304.47	0.006
304.68	0.006
304.89	0.006
305.10	0.006
305.31	0.007
305.52	0.007
305.73	0.007
305.94	0.007
306.15	0.007
306.37	0.007
306.58	0.007
306.79	0.007
307.00	0.007
307.21	0.007
307.42	0.007
307.63	0.007
307.84	0.007
308.05	0.007
308.26	0.007
308.47	0.007
308.68	0.007
308.89	0.007
309.10	0.007
309.31	0.007
309.52	0.007
309.73	0.007
309.95	0.007
310.16	0.007
310.37	0.007
310.58	0.007
310.79	0.008
311.00	0.008
311.21	0.008
311.42	0.008
311.63	0.008
311.84	0.008
312.05	0.008
312.26	0.008
312.47	0.008
312.68	0.008
312.89	0.008
313.10	0.008
313.31	0.008
313.52	0.008
313.73	0.008
313.94	0.008
314.15	0.008
314.36	0.008
314.57	0.008
314.78	0.009
314.99	0.008
315.21	0.009
315.42	0.009
315.63	0.009
315.84	0.009
316.05	0.009
316.26	0.009
316.47	0.009
316.68	0.009
316.89	0.009
317.10	0.009
317.31	0.009
317.52	0.009
317.73	0.009
317.94	0.009
318.15	0.009
318.36	0.009
318.57	0.009
318.78	0.009
318.99	0.009
319.20	0.009
319.41	0.010
319.62	0.010
319.83	0.010
320.04	0.010
320.25	0.009
320.46	0.009
320.67	0.009
320.88	0.009
321.09	0.009
321.30	0.009
321.51	0.009
321.72	0.009
321.93	0.009
322.14	0.009
322.35	0.009
322.56	0.009
322.77	0.009
322.98	0.009
323.19	0.009
323.40	0.009
323.61	0.009
323.82	0.009
324.03	0.010
324.24	0.010
324.45	0.010
324.66	0.010
324.87	0.010
325.08	0.010
325.29	0.010
325.50	0.009
325.71	0.009
325.92	0.010
326.13	0.010
326.34	0.009
326.55	0.009
326.76	0.009
326.97	0.009
327.18	0.009
327.39	0.009
327.60	0.009
327.80	0.010
328.01	0.010
328.22	0.010
328.43	0.010
328.64	0.010
328.85	0.010
329.06	0.010
329.27	0.010
329.48	0.010
329.69	0.010
329.90	0.010
330.11	0.010
330.32	0.010
330.53	0.010
330.74	0.009
330.95	0.009
331.16	0.009
331.37	0.010
331.58	0.010
331.79	0.010
332.00	0.009
332.21	0.009
332.42	0.009
332.63	0.009
332.83	0.009
333.04	0.009
333.25	0.009
333.46	0.009
333.67	0.009
333.88	0.009
334.09	0.009
334.30	0.009
334.51	0.009
334.72	0.009
334.93	0.009
335.14	0.009
335.35	0.009
335.56	0.009
335.77	0.009
335.98	0.009
336.18	0.008
336.39	0.008
336.60	0.009
336.81	0.008
337.02	0.008
337.23	0.008
337.44	0.008
337.65	0.008
337.86	0.008
338.07	0.008
338.28	0.008
338.49	0.008
338.70	0.008
338.91	0.008
339.11	0.008
339.32	0.008
339.53	0.008
339.74	0.008
339.95	0.007
340.16	0.007
340.37	0.007
340.58	0.007
340.79	0.007
341.00	0.007
341.21	0.007
341.41	0.007
341.62	0.007
341.83	0.007
342.04	0.006
342.25	0.006
342.46	0.006
342.67	0.006
342.88	0.006
343.09	0.006
343.30	0.006
343.50	0.006
343.71	0.006
343.92	0.006
344.13	0.006
344.34	0.006
344.55	0.006
344.76	0.006
344.97	0.006
345.18	0.006
345.38	0.006
345.59	0.006
345.80	0.006
346.01	0.006
346.22	0.006
346.43	0.006
346.64	0.005
346.85	0.005
347.06	0.005
347.26	0.005
347.47	0.005
347.68	0.005
347.89	0.005
348.10	0.005
348.31	0.005
348.52	0.005
348.73	0.005
348.93	0.005
349.14	0.005
349.35	0.004
349.56	0.005
349.77	0.005
349.98	0.004
350.19	0.004
350.39	0.004
350.60	0.004
350.81	0.004
351.02	0.004
351.23	0.004
351.44	0.004
351.65	0.004
351.86	0.004
352.06	0.004
352.27	0.004
352.48	0.004
352.69	0.004
352.90	0.004
353.11	0.004
353.31	0.004
353.52	0.004
353.73	0.004
353.94	0.004
354.15	0.004
354.36	0.004
354.57	0.004
354.77	0.004
354.98	0.004
355.19	0.004
355.40	0.004
355.61	0.004
355.82	0.004
356.02	0.004
356.23	0.004
356.44	0.004
356.65	0.004
356.86	0.004
357.07	0.004
357.27	0.004
357.48	0.004
357.69	0.004
357.90	0.004
358.11	0.004
358.32	0.004
358.52	0.003
358.73	0.003
358.94	0.003
359.15	0.003
359.36	0.003
359.56	0.003
359.77	0.003
359.98	0.003
360.19	0.003
360.40	0.003
360.61	0.003
360.81	0.003
361.02	0.003
361.23	0.003
361.44	0.003
361.65	0.003
361.85	0.003
362.06	0.003
362.27	0.003
362.48	0.003
362.69	0.003
362.89	0.003
363.10	0.003
363.31	0.003
363.52	0.003
363.73	0.003
363.93	0.003
364.14	0.003
364.35	0.003
364.56	0.003
364.77	0.003
364.97	0.003
365.18	0.003
365.39	0.003
365.60	0.003
365.81	0.003
366.01	0.003
366.22	0.002
366.43	0.002
366.64	0.002
366.84	0.002
367.05	0.003
367.26	0.003
367.47	0.003
367.68	0.003
367.88	0.003
368.09	0.003
368.30	0.003
368.51	0.003
368.71	0.003
368.92	0.003
369.13	0.003
369.34	0.003
369.55	0.003
369.75	0.003
369.96	0.003
370.17	0.003
370.38	0.003
370.58	0.003
370.79	0.003
371.00	0.003
371.21	0.003
371.41	0.003
371.62	0.002
371.83	0.002
372.04	0.003
372.24	0.003
372.45	0.002
372.66	0.002
372.87	0.003
373.07	0.003
373.28	0.003
373.49	0.003
373.70	0.002
373.90	0.002
374.11	0.002
374.32	0.002
374.53	0.002
374.73	0.002
374.94	0.002
375.15	0.002
375.36	0.002
375.56	0.002
375.77	0.002
375.98	0.002
376.19	0.002
376.39	0.002
376.60	0.002
376.81	0.002
377.02	0.002
377.22	0.002
377.43	0.002
377.64	0.002
377.84	0.002
378.05	0.002
378.26	0.002
378.47	0.002
378.67	0.002
378.88	0.002
379.09	0.002
379.30	0.002
379.50	0.002
379.71	0.002
379.92	0.002
380.12	0.002
380.33	0.002
380.54	0.002
380.75	0.002
380.95	0.002
381.16	0.002
381.37	0.002
381.57	0.002
381.78	0.002
381.99	0.002
382.20	0.002
382.40	0.002
382.61	0.002
382.82	0.002
383.02	0.002
383.23	0.002
383.44	0.002
383.64	0.002
383.85	0.002
384.06	0.002
384.27	0.002
384.47	0.002
384.68	0.001
384.89	0.001
385.09	0.001
385.30	0.001
385.51	0.001
385.71	0.001
385.92	0.001
386.13	0.001
386.33	0.001
386.54	0.001
386.75	0.001
386.95	0.001
387.16	0.001
387.37	0.001
387.58	0.001
387.78	0.001
387.99	0.002
388.20	0.002
388.40	0.002
388.61	0.002
388.82	0.001
389.02	0.001
389.23	0.001
389.44	0.001
389.64	0.001
389.85	0.001
390.06	0.001
390.26	0.001
390.47	0.001
390.68	0.001
390.88	0.001
391.09	0.001
391.30	0.001
391.50	0.001
391.71	0.001
391.92	0.001
392.12	0.001
392.33	0.001
392.53	0.001
392.74	0.001
392.95	0.001
393.15	0.001
393.36	0.001
393.57	0.001
393.77	0.001
393.98	0.001
394.19	0.001
394.39	0.001
394.60	0.002
394.81	0.001
395.01	0.001
395.22	0.001
395.43	0.001
395.63	0.001
395.84	0.001
396.04	0.001
396.25	0.001
396.46	0.001
396.66	0.001
396.87	0.001
397.08	0.001
397.28	0.001
397.49	0.001
397.69	0.001
397.90	0.001
398.11	0.001
398.31	0.001
398.52	0.001
398.73	0.001
398.93	0.001
399.14	0.001
399.34	0.001
399.55	0.001
399.76	0.001
399.96	0.001
400.17	0.001
400.37	0.001
400.58	0.001
400.79	0.001
400.99	0.001
401.20	0.001
401.41	0.001
401.61	0.001
401.82	0.001
402.02	0.001
402.23	0.001
402.44	0.001
402.64	0.001
402.85	0.001
403.05	0.001
403.26	0.001
403.47	0.001
403.67	0.001
403.88	0.000
404.08	0.001
404.29	0.000
404.50	0.000
404.70	0.000
404.91	0.000
405.11	0.000
405.32	0.000
405.52	0.000
405.73	0.000
405.94	0.000
406.14	0.000
406.35	0.000
406.55	0.000
406.76	0.000
406.97	0.000
407.17	0.000
407.38	0.000
407.58	0.000
407.79	0.000
407.99	0.000
408.20	0.000
408.41	0.000
408.61	0.000
408.82	0.000
409.02	0.000
409.23	0.000
409.43	0.000
409.64	0.000
409.84	0.000
410.05	0.001
410.26	0.000
410.46	0.000
410.67	0.000
410.87	0.000
411.08	0.000
411.28	0.000
411.49	0.000
411.69	0.000
411.90	0.000
412.11	0.000
412.31	0.000
412.52	0.000
412.72	0.000
412.93	0.000
413.13	0.000
413.34	0.000
413.54	0.000
413.75	-0.000
413.95	-0.000
414.16	-0.000
414.37	-0.000
414.57	-0.000
414.78	-0.000
414.98	-0.000
415.19	-0.000
415.39	-0.000
415.60	-0.000
415.80	-0.000
416.01	-0.000
416.21	-0.000
416.42	-0.000
416.62	-0.000
416.83	-0.000
417.03	-0.000
417.24	-0.000
417.44	-0.000
417.65	-0.000
417.86	-0.000
418.06	-0.001
418.27	-0.001
418.47	-0.001
418.68	-0.001
418.88	-0.001
419.09	-0.001
419.29	-0.001
419.50	-0.001
419.70	-0.001
419.91	-0.001
420.11	-0.000
420.32	-0.000
420.52	-0.000
420.73	-0.000
420.93	-0.000
421.14	-0.000
421.34	-0.001
421.55	-0.001
421.75	-0.000
421.96	-0.001
422.16	-0.001
422.37	-0.001
422.57	-0.001
422.78	-0.000
422.98	-0.000
423.19	-0.000
423.39	-0.000
423.60	-0.000
423.80	-0.000
424.01	-0.000
424.21	0.000
424.42	0.000
424.62	0.000
424.83	0.000
425.03	0.000
425.23	0.000
425.44	-0.000
425.64	-0.000
425.85	-0.000
426.05	-0.000
426.26	-0.000
426.46	-0.000
426.67	-0.001
426.87	-0.001
427.08	-0.001
427.28	-0.001
427.49	-0.001
427.69	-0.001
427.90	-0.001
428.10	-0.001
428.31	-0.001
428.51	-0.001
428.71	-0.001
428.92	-0.001
429.12	-0.001
429.33	-0.001
429.53	-0.001
429.74	-0.001
429.94	-0.001
430.15	-0.000
430.35	-0.000
430.56	-0.000
430.76	-0.000
430.96	-0.000
431.17	-0.000
431.37	-0.000
431.58	-0.000
431.78	-0.000
431.99	0.000
432.19	0.000
432.40	0.000
432.60	-0.000
432.80	-0.000
433.01	-0.000
433.21	-0.000
433.42	-0.000
433.62	-0.000
433.83	-0.000
434.03	-0.000
434.23	-0.000
434.44	-0.000
434.64	-0.001
434.85	-0.001
435.05	-0.001
435.26	-0.001
435.46	-0.001
435.66	-0.001
435.87	-0.001
436.07	-0.001
436.28	-0.001
436.48	-0.001
436.69	-0.001
436.89	-0.001
437.09	-0.001
437.30	-0.001
437.50	-0.001
437.71	-0.001
437.91	-0.001
438.11	-0.001
438.32	-0.001
438.52	-0.000
438.73	-0.001
438.93	-0.001
439.13	-0.000
439.34	-0.000
439.54	-0.001
439.75	-0.000
439.95	-0.001
440.15	-0.001
440.36	-0.000
440.56	-0.000
440.77	-0.001
440.97	-0.001
441.17	-0.000
441.38	-0.001
441.58	-0.001
441.79	-0.001
441.99	-0.001
442.19	-0.001
442.40	-0.001
442.60	-0.001
442.81	-0.001
443.01	-0.001
443.21	-0.001
443.42	-0.001
443.62	-0.001
443.82	-0.001
444.03	-0.001
444.23	-0.001
444.44	-0.001
444.64	-0.001
444.84	-0.001
445.05	-0.001
445.25	-0.001
445.45	-0.001
445.66	-0.001
445.86	-0.001
446.06	-0.001
446.27	-0.001
446.47	-0.001
446.68	-0.001
446.88	-0.001
447.08	-0.000
447.29	-0.001
447.49	-0.001
447.69	-0.001
447.90	-0.000
448.10	-0.000
448.30	-0.000
448.51	-0.000
448.71	-0.001
448.91	-0.000
449.12	-0.001
449.32	-0.001
449.52	-0.001
449.73	-0.000
449.93	-0.000
450.14	-0.001
450.34	-0.001
450.54	-0.001
450.75	-0.001
450.95	-0.001
451.15	-0.001
451.36	-0.001
451.56	-0.001
451.76	-0.001
451.97	-0.001
452.17	-0.001
452.37	-0.001
452.58	-0.001
452.78	-0.001
452.98	-0.001
453.19	-0.001
453.39	-0.001
453.59	-0.001
453.79	-0.001
454.00	-0.001
454.20	-0.001
454.40	-0.001
454.61	-0.001
454.81	-0.001
455.01	-0.001
455.22	-0.001
455.42	-0.001
455.62	-0.001
455.83	-0.001
456.03	-0.001
456.23	-0.001
456.44	-0.000
456.64	-0.000
456.84	-0.000
457.04	-0.000
457.25	-0.000
457.45	-0.000
457.65	-0.000
457.86	-0.001
458.06	-0.001
458.26	-0.001
458.47	-0.001
458.67	-0.001
458.87	-0.001
459.07	-0.001
459.28	-0.001
