SpectraSuite Data File
++++++++++++++++++++++++++++++++++++
Date: Mon Jun 15 09:05:55 PDT 2015
User: introlabs
Dark Spectrum Present: Yes
Reference Spectrum Present: Yes
Number of Sampled Component Spectra: 1
Spectrometers: USB4H08886
Integration Time (usec): 44366 (USB4H08886)
Spectra Averaged: 20 (USB4H08886)
Boxcar Smoothing: 5 (USB4H08886)
Correct for Electrical Dark: Yes (USB4H08886)
Strobe/Lamp Enabled: No (USB4H08886)
Correct for Detector Non-linearity: Yes (USB4H08886)
Correct for Stray Light: Yes (USB4H08886)
Number of Pixels in Processed Spectrum: 3648
>>>>>Begin Processed Spectral Data<<<<<
178.14	-0.000
178.36	-0.000
178.57	-0.000
178.79	-0.000
179.01	-0.554
179.22	0.381
179.44	0.010
179.65	0.268
179.87	1.107
180.08	0.506
180.30	0.403
180.52	0.259
180.73	0.011
180.95	0.069
181.16	0.020
181.38	-0.009
181.59	-0.022
181.81	-0.017
182.03	0.010
182.24	0.014
182.46	0.015
182.67	0.023
182.89	0.019
183.10	0.023
183.32	0.013
183.54	0.002
183.75	0.002
183.97	0.014
184.18	0.007
184.40	0.000
184.61	0.005
184.83	0.007
185.04	0.003
185.26	0.004
185.48	-0.005
185.69	-0.004
185.91	0.012
186.12	0.016
186.34	0.022
186.55	0.018
186.77	0.019
186.98	0.012
187.20	0.006
187.42	0.014
187.63	0.016
187.85	0.023
188.06	0.028
188.28	0.027
188.49	0.027
188.71	0.018
188.92	0.020
189.14	0.014
189.36	0.027
189.57	0.029
189.79	0.014
190.00	0.006
190.22	0.007
190.43	0.004
190.65	-0.005
190.86	-0.003
191.08	0.000
191.29	-0.000
191.51	0.005
191.72	-0.004
191.94	0.000
192.16	-0.003
192.37	0.003
192.59	0.005
192.80	0.002
193.02	0.011
193.23	0.016
193.45	0.009
193.66	0.011
193.88	0.012
194.09	0.010
194.31	0.004
194.52	0.006
194.74	-0.001
194.95	-0.001
195.17	0.006
195.38	-0.001
195.60	-0.013
195.81	-0.005
196.03	-0.002
196.25	0.001
196.46	0.001
196.68	0.002
196.89	0.015
197.11	0.020
197.32	0.011
197.54	0.001
197.75	0.007
197.97	0.009
198.18	-0.001
198.40	0.001
198.61	-0.013
198.83	-0.020
199.04	-0.014
199.26	-0.026
199.47	-0.029
199.69	-0.017
199.90	-0.003
200.12	-0.011
200.33	-0.003
200.55	-0.001
200.76	-0.005
200.98	0.001
201.19	0.006
201.41	-0.004
201.62	0.006
201.84	0.013
202.05	0.015
202.27	0.003
202.48	0.010
202.70	0.002
202.91	0.004
203.13	0.003
203.34	-0.002
203.56	0.001
203.77	0.007
203.99	0.002
204.20	-0.004
204.42	-0.010
204.63	-0.002
204.85	-0.010
205.06	-0.008
205.28	-0.007
205.49	-0.006
205.71	0.003
205.92	-0.001
206.14	-0.002
206.35	0.003
206.56	0.011
206.78	0.009
206.99	0.009
207.21	0.020
207.42	0.026
207.64	0.026
207.85	0.024
208.07	0.029
208.28	0.033
208.50	0.040
208.71	0.036
208.93	0.031
209.14	0.036
209.36	0.033
209.57	0.033
209.79	0.033
210.00	0.032
210.22	0.037
210.43	0.026
210.64	0.023
210.86	0.011
211.07	0.008
211.29	0.006
211.50	0.002
211.72	-0.006
211.93	-0.010
212.15	-0.015
212.36	-0.017
212.58	-0.018
212.79	-0.011
213.01	-0.015
213.22	-0.008
213.43	-0.006
213.65	-0.005
213.86	-0.007
214.08	0.008
214.29	0.008
214.51	0.010
214.72	0.004
214.94	0.002
215.15	0.005
215.36	0.010
215.58	0.001
215.79	-0.002
216.01	0.000
216.22	0.005
216.44	-0.007
216.65	-0.009
216.87	-0.007
217.08	0.000
217.29	0.005
217.51	0.003
217.72	0.003
217.94	0.009
218.15	0.018
218.37	0.012
218.58	0.007
218.80	0.018
219.01	0.014
219.22	0.015
219.44	0.012
219.65	0.008
219.87	0.008
220.08	0.009
220.30	0.009
220.51	0.001
220.72	0.001
220.94	-0.002
221.15	-0.008
221.37	-0.009
221.58	-0.006
221.79	-0.002
222.01	-0.007
222.22	-0.011
222.44	-0.016
222.65	-0.020
222.87	-0.021
223.08	-0.020
223.29	-0.016
223.51	-0.017
223.72	-0.014
223.94	-0.023
224.15	-0.026
224.36	-0.023
224.58	-0.029
224.79	-0.022
225.01	-0.022
225.22	-0.021
225.44	-0.019
225.65	-0.019
225.86	-0.016
226.08	-0.013
226.29	-0.010
226.51	-0.007
226.72	-0.005
226.93	-0.000
227.15	-0.007
227.36	-0.010
227.58	-0.009
227.79	-0.007
228.00	-0.005
228.22	-0.010
228.43	-0.012
228.65	-0.013
228.86	-0.013
229.07	-0.014
229.29	-0.015
229.50	-0.013
229.72	-0.011
229.93	-0.015
230.14	-0.019
230.36	-0.023
230.57	-0.024
230.78	-0.026
231.00	-0.028
231.21	-0.035
231.43	-0.034
231.64	-0.035
231.85	-0.035
232.07	-0.036
232.28	-0.034
232.50	-0.034
232.71	-0.034
232.92	-0.033
233.14	-0.033
233.35	-0.032
233.56	-0.030
233.78	-0.031
233.99	-0.030
234.21	-0.031
234.42	-0.030
234.63	-0.031
234.85	-0.031
235.06	-0.031
235.27	-0.032
235.49	-0.031
235.70	-0.032
235.91	-0.034
236.13	-0.034
236.34	-0.036
236.56	-0.037
236.77	-0.036
236.98	-0.035
237.20	-0.037
237.41	-0.036
237.62	-0.036
237.84	-0.037
238.05	-0.035
238.26	-0.034
238.48	-0.034
238.69	-0.032
238.91	-0.031
239.12	-0.032
239.33	-0.032
239.55	-0.030
239.76	-0.030
239.97	-0.029
240.19	-0.027
240.40	-0.027
240.61	-0.026
240.83	-0.025
241.04	-0.025
241.25	-0.025
241.47	-0.023
241.68	-0.022
241.89	-0.021
242.11	-0.020
242.32	-0.019
242.53	-0.019
242.75	-0.019
242.96	-0.018
243.17	-0.017
243.39	-0.017
243.60	-0.016
243.81	-0.016
244.03	-0.016
244.24	-0.015
244.45	-0.015
244.67	-0.015
244.88	-0.014
245.09	-0.014
245.31	-0.013
245.52	-0.013
245.73	-0.012
245.95	-0.012
246.16	-0.012
246.37	-0.012
246.59	-0.011
246.80	-0.011
247.01	-0.011
247.23	-0.011
247.44	-0.011
247.65	-0.011
247.87	-0.011
248.08	-0.011
248.29	-0.010
248.51	-0.009
248.72	-0.009
248.93	-0.009
249.15	-0.008
249.36	-0.008
249.57	-0.008
249.78	-0.008
250.00	-0.007
250.21	-0.007
250.42	-0.006
250.64	-0.006
250.85	-0.006
251.06	-0.006
251.28	-0.006
251.49	-0.006
251.70	-0.006
251.92	-0.005
252.13	-0.005
252.34	-0.004
252.55	-0.004
252.77	-0.005
252.98	-0.004
253.19	-0.004
253.41	-0.004
253.62	-0.004
253.83	-0.004
254.05	-0.003
254.26	-0.004
254.47	-0.004
254.68	-0.004
254.90	-0.004
255.11	-0.004
255.32	-0.004
255.54	-0.004
255.75	-0.004
255.96	-0.004
256.17	-0.004
256.39	-0.004
256.60	-0.004
256.81	-0.004
257.03	-0.003
257.24	-0.003
257.45	-0.003
257.66	-0.004
257.88	-0.004
258.09	-0.004
258.30	-0.004
258.51	-0.004
258.73	-0.004
258.94	-0.004
259.15	-0.003
259.37	-0.004
259.58	-0.004
259.79	-0.004
260.00	-0.004
260.22	-0.004
260.43	-0.003
260.64	-0.004
260.85	-0.004
261.07	-0.004
261.28	-0.004
261.49	-0.004
261.71	-0.004
261.92	-0.004
262.13	-0.005
262.34	-0.005
262.56	-0.005
262.77	-0.005
262.98	-0.005
263.19	-0.006
263.41	-0.006
263.62	-0.006
263.83	-0.006
264.04	-0.007
264.26	-0.006
264.47	-0.007
264.68	-0.007
264.89	-0.007
265.11	-0.007
265.32	-0.007
265.53	-0.007
265.74	-0.007
265.96	-0.008
266.17	-0.008
266.38	-0.008
266.59	-0.008
266.81	-0.008
267.02	-0.009
267.23	-0.009
267.44	-0.009
267.65	-0.010
267.87	-0.010
268.08	-0.010
268.29	-0.009
268.50	-0.010
268.72	-0.010
268.93	-0.009
269.14	-0.010
269.35	-0.010
269.57	-0.010
269.78	-0.010
269.99	-0.010
270.20	-0.011
270.41	-0.011
270.63	-0.011
270.84	-0.012
271.05	-0.012
271.26	-0.012
271.48	-0.013
271.69	-0.013
271.90	-0.013
272.11	-0.013
272.32	-0.014
272.54	-0.014
272.75	-0.014
272.96	-0.014
273.17	-0.014
273.39	-0.014
273.60	-0.015
273.81	-0.014
274.02	-0.015
274.23	-0.014
274.45	-0.014
274.66	-0.015
274.87	-0.015
275.08	-0.015
275.29	-0.015
275.51	-0.015
275.72	-0.015
275.93	-0.015
276.14	-0.015
276.35	-0.015
276.57	-0.015
276.78	-0.016
276.99	-0.015
277.20	-0.015
277.41	-0.015
277.63	-0.015
277.84	-0.015
278.05	-0.015
278.26	-0.015
278.47	-0.015
278.69	-0.015
278.90	-0.014
279.11	-0.014
279.32	-0.014
279.53	-0.014
279.74	-0.014
279.96	-0.013
280.17	-0.013
280.38	-0.013
280.59	-0.013
280.80	-0.012
281.02	-0.013
281.23	-0.012
281.44	-0.012
281.65	-0.012
281.86	-0.011
282.07	-0.011
282.29	-0.011
282.50	-0.011
282.71	-0.011
282.92	-0.011
283.13	-0.011
283.35	-0.010
283.56	-0.010
283.77	-0.010
283.98	-0.010
284.19	-0.010
284.40	-0.009
284.62	-0.009
284.83	-0.009
285.04	-0.008
285.25	-0.008
285.46	-0.007
285.67	-0.007
285.88	-0.006
286.10	-0.006
286.31	-0.005
286.52	-0.004
286.73	-0.004
286.94	-0.003
287.15	-0.002
287.37	-0.002
287.58	-0.001
287.79	-0.001
288.00	-0.000
288.21	-0.000
288.42	0.000
288.63	0.001
288.85	0.001
289.06	0.002
289.27	0.002
289.48	0.002
289.69	0.003
289.90	0.003
290.11	0.004
290.33	0.004
290.54	0.005
290.75	0.005
290.96	0.005
291.17	0.005
291.38	0.006
291.59	0.006
291.81	0.007
292.02	0.007
292.23	0.007
292.44	0.007
292.65	0.007
292.86	0.008
293.07	0.008
293.28	0.008
293.50	0.009
293.71	0.009
293.92	0.009
294.13	0.009
294.34	0.009
294.55	0.009
294.76	0.009
294.97	0.010
295.19	0.010
295.40	0.010
295.61	0.010
295.82	0.010
296.03	0.010
296.24	0.010
296.45	0.010
296.66	0.010
296.87	0.010
297.09	0.010
297.30	0.010
297.51	0.010
297.72	0.010
297.93	0.010
298.14	0.010
298.35	0.010
298.56	0.010
298.77	0.010
298.99	0.010
299.20	0.010
299.41	0.011
299.62	0.010
299.83	0.010
300.04	0.011
300.25	0.011
300.46	0.011
300.67	0.011
300.88	0.011
301.10	0.011
301.31	0.011
301.52	0.011
301.73	0.011
301.94	0.011
302.15	0.011
302.36	0.011
302.57	0.011
302.78	0.011
302.99	0.011
303.20	0.011
303.41	0.011
303.63	0.011
303.84	0.011
304.05	0.011
304.26	0.011
304.47	0.011
304.68	0.011
304.89	0.011
305.10	0.011
305.31	0.011
305.52	0.011
305.73	0.011
305.94	0.012
306.15	0.011
306.37	0.011
306.58	0.012
306.79	0.012
307.00	0.012
307.21	0.012
307.42	0.012
307.63	0.012
307.84	0.012
308.05	0.012
308.26	0.012
308.47	0.012
308.68	0.012
308.89	0.012
309.10	0.012
309.31	0.012
309.52	0.012
309.73	0.012
309.95	0.012
310.16	0.012
310.37	0.012
310.58	0.012
310.79	0.012
311.00	0.012
311.21	0.013
311.42	0.013
311.63	0.013
311.84	0.013
312.05	0.013
312.26	0.013
312.47	0.013
312.68	0.013
312.89	0.013
313.10	0.013
313.31	0.013
313.52	0.013
313.73	0.013
313.94	0.013
314.15	0.013
314.36	0.013
314.57	0.013
314.78	0.013
314.99	0.013
315.21	0.013
315.42	0.013
315.63	0.013
315.84	0.013
316.05	0.014
316.26	0.014
316.47	0.014
316.68	0.014
316.89	0.014
317.10	0.014
317.31	0.014
317.52	0.014
317.73	0.014
317.94	0.014
318.15	0.014
318.36	0.014
318.57	0.014
318.78	0.014
318.99	0.014
319.20	0.014
319.41	0.014
319.62	0.014
319.83	0.014
320.04	0.014
320.25	0.014
320.46	0.014
320.67	0.014
320.88	0.014
321.09	0.014
321.30	0.014
321.51	0.014
321.72	0.014
321.93	0.014
322.14	0.014
322.35	0.014
322.56	0.014
322.77	0.014
322.98	0.014
323.19	0.014
323.40	0.014
323.61	0.014
323.82	0.014
324.03	0.014
324.24	0.014
324.45	0.015
324.66	0.014
324.87	0.014
325.08	0.014
325.29	0.014
325.50	0.014
325.71	0.014
325.92	0.014
326.13	0.014
326.34	0.014
326.55	0.014
326.76	0.014
326.97	0.014
327.18	0.014
327.39	0.014
327.60	0.014
327.80	0.014
328.01	0.014
328.22	0.014
328.43	0.014
328.64	0.014
328.85	0.014
329.06	0.014
329.27	0.014
329.48	0.014
329.69	0.014
329.90	0.014
330.11	0.014
330.32	0.014
330.53	0.014
330.74	0.014
330.95	0.014
331.16	0.014
331.37	0.014
331.58	0.014
331.79	0.014
332.00	0.014
332.21	0.014
332.42	0.014
332.63	0.013
332.83	0.014
333.04	0.014
333.25	0.014
333.46	0.013
333.67	0.013
333.88	0.013
334.09	0.013
334.30	0.013
334.51	0.013
334.72	0.013
334.93	0.013
335.14	0.013
335.35	0.013
335.56	0.013
335.77	0.013
335.98	0.013
336.18	0.012
336.39	0.012
336.60	0.012
336.81	0.012
337.02	0.012
337.23	0.012
337.44	0.012
337.65	0.012
337.86	0.012
338.07	0.012
338.28	0.012
338.49	0.012
338.70	0.012
338.91	0.012
339.11	0.012
339.32	0.011
339.53	0.011
339.74	0.011
339.95	0.011
340.16	0.011
340.37	0.011
340.58	0.011
340.79	0.011
341.00	0.011
341.21	0.011
341.41	0.010
341.62	0.010
341.83	0.010
342.04	0.010
342.25	0.010
342.46	0.010
342.67	0.010
342.88	0.010
343.09	0.010
343.30	0.010
343.50	0.010
343.71	0.010
343.92	0.010
344.13	0.010
344.34	0.009
344.55	0.009
344.76	0.009
344.97	0.009
345.18	0.009
345.38	0.009
345.59	0.009
345.80	0.009
346.01	0.009
346.22	0.009
346.43	0.009
346.64	0.009
346.85	0.009
347.06	0.009
347.26	0.009
347.47	0.008
347.68	0.008
347.89	0.008
348.10	0.008
348.31	0.008
348.52	0.008
348.73	0.008
348.93	0.008
349.14	0.008
349.35	0.007
349.56	0.007
349.77	0.007
349.98	0.007
350.19	0.007
350.39	0.007
350.60	0.007
350.81	0.007
351.02	0.007
351.23	0.007
351.44	0.007
351.65	0.007
351.86	0.007
352.06	0.007
352.27	0.007
352.48	0.007
352.69	0.007
352.90	0.007
353.11	0.007
353.31	0.007
353.52	0.007
353.73	0.007
353.94	0.007
354.15	0.007
354.36	0.007
354.57	0.006
354.77	0.007
354.98	0.006
355.19	0.006
355.40	0.006
355.61	0.006
355.82	0.006
356.02	0.006
356.23	0.006
356.44	0.006
356.65	0.006
356.86	0.006
357.07	0.006
357.27	0.006
357.48	0.006
357.69	0.006
357.90	0.006
358.11	0.006
358.32	0.006
358.52	0.006
358.73	0.006
358.94	0.006
359.15	0.006
359.36	0.006
359.56	0.005
359.77	0.005
359.98	0.006
360.19	0.005
360.40	0.005
360.61	0.005
360.81	0.006
361.02	0.006
361.23	0.006
361.44	0.005
361.65	0.005
361.85	0.005
362.06	0.005
362.27	0.005
362.48	0.005
362.69	0.005
362.89	0.005
363.10	0.005
363.31	0.005
363.52	0.005
363.73	0.005
363.93	0.005
364.14	0.005
364.35	0.005
364.56	0.005
364.77	0.005
364.97	0.005
365.18	0.005
365.39	0.005
365.60	0.005
365.81	0.005
366.01	0.005
366.22	0.005
366.43	0.005
366.64	0.005
366.84	0.005
367.05	0.005
367.26	0.005
367.47	0.005
367.68	0.005
367.88	0.005
368.09	0.005
368.30	0.005
368.51	0.005
368.71	0.005
368.92	0.005
369.13	0.005
369.34	0.005
369.55	0.005
369.75	0.005
369.96	0.005
370.17	0.005
370.38	0.005
370.58	0.005
370.79	0.005
371.00	0.004
371.21	0.005
371.41	0.005
371.62	0.004
371.83	0.004
372.04	0.004
372.24	0.004
372.45	0.004
372.66	0.004
372.87	0.004
373.07	0.004
373.28	0.004
373.49	0.004
373.70	0.004
373.90	0.004
374.11	0.004
374.32	0.004
374.53	0.004
374.73	0.004
374.94	0.004
375.15	0.004
375.36	0.004
375.56	0.004
375.77	0.004
375.98	0.004
376.19	0.004
376.39	0.004
376.60	0.004
376.81	0.004
377.02	0.004
377.22	0.004
377.43	0.004
377.64	0.004
377.84	0.004
378.05	0.004
378.26	0.004
378.47	0.004
378.67	0.004
378.88	0.004
379.09	0.004
379.30	0.004
379.50	0.004
379.71	0.003
379.92	0.003
380.12	0.003
380.33	0.003
380.54	0.003
380.75	0.003
380.95	0.003
381.16	0.003
381.37	0.003
381.57	0.003
381.78	0.003
381.99	0.003
382.20	0.003
382.40	0.003
382.61	0.003
382.82	0.003
383.02	0.003
383.23	0.003
383.44	0.003
383.64	0.003
383.85	0.003
384.06	0.003
384.27	0.003
384.47	0.003
384.68	0.003
384.89	0.003
385.09	0.003
385.30	0.003
385.51	0.003
385.71	0.003
385.92	0.003
386.13	0.003
386.33	0.003
386.54	0.003
386.75	0.003
386.95	0.003
387.16	0.003
387.37	0.003
387.58	0.003
387.78	0.003
387.99	0.003
388.20	0.003
388.40	0.003
388.61	0.003
388.82	0.003
389.02	0.003
389.23	0.003
389.44	0.003
389.64	0.003
389.85	0.003
390.06	0.003
390.26	0.003
390.47	0.003
390.68	0.002
390.88	0.003
391.09	0.002
391.30	0.003
391.50	0.002
391.71	0.002
391.92	0.002
392.12	0.002
392.33	0.002
392.53	0.003
392.74	0.003
392.95	0.003
393.15	0.003
393.36	0.003
393.57	0.003
393.77	0.003
393.98	0.003
394.19	0.003
394.39	0.003
394.60	0.003
394.81	0.003
395.01	0.003
395.22	0.003
395.43	0.003
395.63	0.003
395.84	0.002
396.04	0.002
396.25	0.002
396.46	0.002
396.66	0.002
396.87	0.002
397.08	0.002
397.28	0.002
397.49	0.002
397.69	0.002
397.90	0.002
398.11	0.002
398.31	0.002
398.52	0.002
398.73	0.002
398.93	0.002
399.14	0.002
399.34	0.002
399.55	0.002
399.76	0.002
399.96	0.002
400.17	0.002
400.37	0.002
400.58	0.002
400.79	0.002
400.99	0.002
401.20	0.002
401.41	0.002
401.61	0.002
401.82	0.002
402.02	0.002
402.23	0.002
402.44	0.002
402.64	0.002
402.85	0.002
403.05	0.002
403.26	0.002
403.47	0.002
403.67	0.002
403.88	0.002
404.08	0.002
404.29	0.002
404.50	0.002
404.70	0.002
404.91	0.002
405.11	0.002
405.32	0.002
405.52	0.002
405.73	0.002
405.94	0.002
406.14	0.001
406.35	0.001
406.55	0.001
406.76	0.001
406.97	0.001
407.17	0.001
407.38	0.002
407.58	0.001
407.79	0.001
407.99	0.002
408.20	0.002
408.41	0.002
408.61	0.002
408.82	0.002
409.02	0.002
409.23	0.002
409.43	0.002
409.64	0.002
409.84	0.002
410.05	0.002
410.26	0.002
410.46	0.002
410.67	0.002
410.87	0.002
411.08	0.002
411.28	0.002
411.49	0.002
411.69	0.002
411.90	0.002
412.11	0.001
412.31	0.001
412.52	0.002
412.72	0.001
412.93	0.001
413.13	0.001
413.34	0.001
413.54	0.001
413.75	0.001
413.95	0.001
414.16	0.001
414.37	0.001
414.57	0.001
414.78	0.001
414.98	0.001
415.19	0.001
415.39	0.001
415.60	0.001
415.80	0.001
416.01	0.001
416.21	0.001
416.42	0.001
416.62	0.001
416.83	0.001
417.03	0.001
417.24	0.001
417.44	0.001
417.65	0.001
417.86	0.001
418.06	0.001
418.27	0.001
418.47	0.001
418.68	0.000
418.88	0.000
419.09	0.000
419.29	0.000
419.50	0.000
419.70	0.000
419.91	0.000
420.11	0.000
420.32	0.000
420.52	0.000
420.73	0.000
420.93	0.000
421.14	0.000
421.34	0.000
421.55	0.000
421.75	0.000
421.96	0.001
422.16	0.001
422.37	0.001
422.57	0.001
422.78	0.001
422.98	0.001
423.19	0.001
423.39	0.001
423.60	0.001
423.80	0.001
424.01	0.001
424.21	0.001
424.42	0.001
424.62	0.001
424.83	0.001
425.03	0.001
425.23	0.001
425.44	0.001
425.64	0.001
425.85	0.001
426.05	0.001
426.26	0.000
426.46	0.001
426.67	0.001
426.87	0.000
427.08	0.000
427.28	0.000
427.49	0.000
427.69	0.000
427.90	0.000
428.10	0.000
428.31	0.000
428.51	0.000
428.71	0.000
428.92	-0.000
429.12	0.000
429.33	0.000
429.53	0.000
429.74	0.000
429.94	0.000
430.15	0.000
430.35	0.000
430.56	0.000
430.76	0.001
430.96	0.001
431.17	0.001
431.37	0.001
431.58	0.001
431.78	0.001
431.99	0.001
432.19	0.001
432.40	0.001
432.60	0.001
432.80	0.001
433.01	0.001
433.21	0.001
433.42	0.000
433.62	0.000
433.83	0.000
434.03	0.000
434.23	0.000
434.44	0.000
434.64	0.000
434.85	0.000
435.05	0.000
435.26	0.001
435.46	0.000
435.66	0.001
435.87	0.000
436.07	0.000
436.28	0.000
436.48	-0.000
436.69	0.000
436.89	0.000
437.09	-0.000
437.30	-0.000
437.50	-0.000
437.71	0.000
437.91	0.000
438.11	0.000
438.32	0.000
438.52	0.000
438.73	0.000
438.93	0.000
439.13	0.000
439.34	0.000
439.54	0.000
439.75	0.000
439.95	0.000
440.15	0.000
440.36	0.000
440.56	0.000
440.77	-0.000
440.97	0.000
441.17	0.000
441.38	-0.000
441.58	-0.000
441.79	-0.000
441.99	-0.000
442.19	-0.000
442.40	-0.000
442.60	-0.000
442.81	0.000
443.01	0.000
443.21	0.000
443.42	0.000
443.62	0.000
443.82	0.000
444.03	0.000
444.23	0.000
444.44	0.000
444.64	0.000
444.84	0.000
445.05	0.000
445.25	0.000
445.45	0.000
445.66	0.000
445.86	0.000
446.06	0.000
446.27	0.000
446.47	0.000
446.68	0.000
446.88	0.000
447.08	0.000
447.29	0.000
447.49	0.000
447.69	-0.000
447.90	-0.000
448.10	0.000
448.30	0.000
448.51	0.000
448.71	0.000
448.91	0.000
449.12	0.000
449.32	0.000
449.52	0.000
449.73	0.000
449.93	0.000
450.14	0.000
450.34	0.000
450.54	0.000
450.75	0.000
450.95	0.000
451.15	0.000
451.36	-0.000
451.56	-0.000
451.76	-0.000
451.97	-0.000
452.17	-0.000
452.37	-0.000
452.58	-0.000
452.78	-0.000
452.98	-0.000
453.19	-0.000
453.39	-0.000
453.59	-0.000
453.79	-0.000
454.00	-0.000
454.20	-0.000
454.40	-0.000
454.61	-0.000
454.81	-0.000
455.01	-0.000
455.22	-0.000
455.42	-0.000
455.62	-0.000
455.83	-0.000
456.03	-0.000
456.23	-0.000
456.44	-0.000
456.64	0.000
456.84	0.000
457.04	0.000
457.25	0.000
457.45	-0.000
457.65	-0.000
457.86	-0.000
458.06	-0.000
458.26	-0.000
458.47	-0.000
458.67	-0.000
458.87	-0.000
459.07	-0.000
459.28	-0.000
459.48	-0.000
459.68	-0.000
459.89	-0.000
460.09	-0.000
460.29	-0.000
460.49	-0.000
460.70	-0.000
460.90	-0.000
461.10	0.000
461.31	-0.000
461.51	0.000
