SpectraSuite Data File
++++++++++++++++++++++++++++++++++++
Date: Mon Jun 15 09:40:57 PDT 2015
User: introlabs
Dark Spectrum Present: Yes
Reference Spectrum Present: Yes
Number of Sampled Component Spectra: 1
Spectrometers: USB4H08886
Integration Time (usec): 44366 (USB4H08886)
Spectra Averaged: 20 (USB4H08886)
Boxcar Smoothing: 5 (USB4H08886)
Correct for Electrical Dark: Yes (USB4H08886)
Strobe/Lamp Enabled: No (USB4H08886)
Correct for Detector Non-linearity: Yes (USB4H08886)
Correct for Stray Light: Yes (USB4H08886)
Number of Pixels in Processed Spectrum: 3648
>>>>>Begin Processed Spectral Data<<<<<
178.14	-0.000
178.36	-0.000
178.57	-0.000
178.79	-0.000
179.01	-0.735
179.22	-0.000
179.44	-0.000
179.65	-0.106
179.87	0.281
180.08	0.836
180.30	0.833
180.52	-0.000
180.73	0.592
180.95	0.133
181.16	0.102
181.38	0.036
181.59	0.028
181.81	0.007
182.03	0.007
182.24	0.010
182.46	0.012
182.67	0.014
182.89	0.016
183.10	0.016
183.32	0.017
183.54	0.001
183.75	0.015
183.97	0.015
184.18	0.016
184.40	0.010
184.61	0.015
184.83	0.008
185.04	0.006
185.26	-0.002
185.48	0.005
185.69	0.008
185.91	0.007
186.12	-0.002
186.34	0.006
186.55	0.003
186.77	0.005
186.98	-0.004
187.20	-0.011
187.42	-0.006
187.63	-0.002
187.85	-0.001
188.06	-0.003
188.28	0.008
188.49	0.017
188.71	0.017
188.92	0.010
189.14	0.011
189.36	0.028
189.57	0.031
189.79	0.015
190.00	0.015
190.22	0.010
190.43	0.012
190.65	0.003
190.86	0.001
191.08	-0.007
191.29	-0.000
191.51	0.002
191.72	-0.012
191.94	-0.009
192.16	-0.000
192.37	-0.001
192.59	-0.003
192.80	-0.004
193.02	0.006
193.23	0.009
193.45	0.006
193.66	0.005
193.88	0.001
194.09	0.002
194.31	0.000
194.52	-0.003
194.74	0.001
194.95	-0.005
195.17	-0.006
195.38	-0.022
195.60	-0.032
195.81	-0.021
196.03	-0.020
196.25	-0.009
196.46	-0.013
196.68	-0.011
196.89	-0.008
197.11	-0.005
197.32	0.004
197.54	0.006
197.75	0.026
197.97	0.025
198.18	0.017
198.40	0.023
198.61	0.013
198.83	0.012
199.04	0.012
199.26	0.008
199.47	-0.003
199.69	-0.005
199.90	-0.001
200.12	-0.007
200.33	-0.003
200.55	-0.001
200.76	-0.012
200.98	-0.012
201.19	-0.007
201.41	-0.011
201.62	-0.006
201.84	0.003
202.05	0.005
202.27	-0.000
202.48	0.005
202.70	0.006
202.91	0.006
203.13	0.014
203.34	0.010
203.56	0.008
203.77	0.007
203.99	0.005
204.20	0.001
204.42	0.002
204.63	0.004
204.85	-0.003
205.06	-0.011
205.28	-0.002
205.49	-0.005
205.71	0.006
205.92	0.012
206.14	0.010
206.35	0.017
206.56	0.022
206.78	0.016
206.99	0.020
207.21	0.024
207.42	0.025
207.64	0.023
207.85	0.025
208.07	0.020
208.28	0.017
208.50	0.027
208.71	0.028
208.93	0.025
209.14	0.029
209.36	0.021
209.57	0.020
209.79	0.027
210.00	0.026
210.22	0.027
210.43	0.028
210.64	0.024
210.86	0.014
211.07	0.007
211.29	0.006
211.50	-0.000
211.72	0.000
211.93	0.002
212.15	-0.000
212.36	-0.008
212.58	-0.006
212.79	-0.004
213.01	-0.006
213.22	0.001
213.43	-0.000
213.65	-0.001
213.86	-0.002
214.08	0.004
214.29	0.005
214.51	-0.001
214.72	0.000
214.94	-0.008
215.15	-0.009
215.36	-0.006
215.58	-0.009
215.79	-0.013
216.01	-0.011
216.22	-0.008
216.44	-0.017
216.65	-0.025
216.87	-0.021
217.08	-0.019
217.29	-0.007
217.51	-0.009
217.72	-0.015
217.94	-0.014
218.15	-0.007
218.37	-0.013
218.58	-0.011
218.80	-0.001
219.01	-0.001
219.22	-0.001
219.44	-0.000
219.65	-0.008
219.87	-0.003
220.08	-0.002
220.30	-0.005
220.51	-0.008
220.72	-0.008
220.94	-0.010
221.15	-0.014
221.37	-0.011
221.58	-0.010
221.79	-0.006
222.01	-0.011
222.22	-0.019
222.44	-0.014
222.65	-0.013
222.87	-0.014
223.08	-0.016
223.29	-0.015
223.51	-0.016
223.72	-0.019
223.94	-0.025
224.15	-0.028
224.36	-0.023
224.58	-0.024
224.79	-0.023
225.01	-0.026
225.22	-0.022
225.44	-0.020
225.65	-0.020
225.86	-0.021
226.08	-0.020
226.29	-0.020
226.51	-0.023
226.72	-0.021
226.93	-0.017
227.15	-0.027
227.36	-0.027
227.58	-0.029
227.79	-0.022
228.00	-0.024
228.22	-0.031
228.43	-0.034
228.65	-0.033
228.86	-0.032
229.07	-0.036
229.29	-0.042
229.50	-0.040
229.72	-0.039
229.93	-0.042
230.14	-0.048
230.36	-0.051
230.57	-0.048
230.78	-0.048
231.00	-0.052
231.21	-0.057
231.43	-0.056
231.64	-0.055
231.85	-0.053
232.07	-0.057
232.28	-0.057
232.50	-0.059
232.71	-0.060
232.92	-0.060
233.14	-0.060
233.35	-0.059
233.56	-0.057
233.78	-0.059
233.99	-0.059
234.21	-0.060
234.42	-0.058
234.63	-0.057
234.85	-0.057
235.06	-0.057
235.27	-0.057
235.49	-0.056
235.70	-0.057
235.91	-0.059
236.13	-0.057
236.34	-0.059
236.56	-0.059
236.77	-0.060
236.98	-0.060
237.20	-0.060
237.41	-0.059
237.62	-0.059
237.84	-0.060
238.05	-0.059
238.26	-0.058
238.48	-0.059
238.69	-0.057
238.91	-0.056
239.12	-0.056
239.33	-0.056
239.55	-0.054
239.76	-0.054
239.97	-0.052
240.19	-0.050
240.40	-0.050
240.61	-0.049
240.83	-0.049
241.04	-0.048
241.25	-0.048
241.47	-0.046
241.68	-0.045
241.89	-0.044
242.11	-0.044
242.32	-0.044
242.53	-0.044
242.75	-0.043
242.96	-0.042
243.17	-0.041
243.39	-0.041
243.60	-0.040
243.81	-0.040
244.03	-0.041
244.24	-0.040
244.45	-0.040
244.67	-0.039
244.88	-0.038
245.09	-0.037
245.31	-0.037
245.52	-0.037
245.73	-0.037
245.95	-0.037
246.16	-0.036
246.37	-0.036
246.59	-0.036
246.80	-0.035
247.01	-0.035
247.23	-0.035
247.44	-0.035
247.65	-0.035
247.87	-0.034
248.08	-0.034
248.29	-0.033
248.51	-0.033
248.72	-0.032
248.93	-0.032
249.15	-0.032
249.36	-0.032
249.57	-0.032
249.78	-0.031
250.00	-0.031
250.21	-0.031
250.42	-0.031
250.64	-0.031
250.85	-0.031
251.06	-0.031
251.28	-0.030
251.49	-0.030
251.70	-0.031
251.92	-0.030
252.13	-0.029
252.34	-0.028
252.55	-0.028
252.77	-0.029
252.98	-0.029
253.19	-0.028
253.41	-0.028
253.62	-0.028
253.83	-0.028
254.05	-0.027
254.26	-0.027
254.47	-0.028
254.68	-0.028
254.90	-0.028
255.11	-0.027
255.32	-0.027
255.54	-0.027
255.75	-0.027
255.96	-0.027
256.17	-0.027
256.39	-0.027
256.60	-0.027
256.81	-0.027
257.03	-0.027
257.24	-0.027
257.45	-0.027
257.66	-0.027
257.88	-0.027
258.09	-0.027
258.30	-0.027
258.51	-0.028
258.73	-0.027
258.94	-0.028
259.15	-0.028
259.37	-0.028
259.58	-0.029
259.79	-0.029
260.00	-0.028
260.22	-0.028
260.43	-0.028
260.64	-0.029
260.85	-0.029
261.07	-0.029
261.28	-0.029
261.49	-0.030
261.71	-0.029
261.92	-0.029
262.13	-0.029
262.34	-0.030
262.56	-0.030
262.77	-0.030
262.98	-0.030
263.19	-0.030
263.41	-0.031
263.62	-0.031
263.83	-0.031
264.04	-0.032
264.26	-0.032
264.47	-0.033
264.68	-0.033
264.89	-0.033
265.11	-0.034
265.32	-0.034
265.53	-0.034
265.74	-0.034
265.96	-0.034
266.17	-0.034
266.38	-0.034
266.59	-0.034
266.81	-0.034
267.02	-0.034
267.23	-0.035
267.44	-0.035
267.65	-0.035
267.87	-0.036
268.08	-0.036
268.29	-0.036
268.50	-0.036
268.72	-0.036
268.93	-0.036
269.14	-0.037
269.35	-0.037
269.57	-0.037
269.78	-0.037
269.99	-0.037
270.20	-0.038
270.41	-0.038
270.63	-0.038
270.84	-0.039
271.05	-0.039
271.26	-0.040
271.48	-0.040
271.69	-0.040
271.90	-0.041
272.11	-0.041
272.32	-0.042
272.54	-0.042
272.75	-0.042
272.96	-0.042
273.17	-0.042
273.39	-0.042
273.60	-0.042
273.81	-0.042
274.02	-0.042
274.23	-0.042
274.45	-0.042
274.66	-0.042
274.87	-0.042
275.08	-0.042
275.29	-0.042
275.51	-0.043
275.72	-0.043
275.93	-0.043
276.14	-0.042
276.35	-0.042
276.57	-0.042
276.78	-0.042
276.99	-0.042
277.20	-0.042
277.41	-0.042
277.63	-0.042
277.84	-0.041
278.05	-0.041
278.26	-0.041
278.47	-0.041
278.69	-0.041
278.90	-0.040
279.11	-0.040
279.32	-0.040
279.53	-0.040
279.74	-0.040
279.96	-0.039
280.17	-0.039
280.38	-0.039
280.59	-0.039
280.80	-0.039
281.02	-0.038
281.23	-0.038
281.44	-0.038
281.65	-0.038
281.86	-0.037
282.07	-0.037
282.29	-0.037
282.50	-0.037
282.71	-0.037
282.92	-0.037
283.13	-0.036
283.35	-0.036
283.56	-0.036
283.77	-0.036
283.98	-0.035
284.19	-0.035
284.40	-0.035
284.62	-0.034
284.83	-0.034
285.04	-0.034
285.25	-0.033
285.46	-0.032
285.67	-0.032
285.88	-0.031
286.10	-0.031
286.31	-0.030
286.52	-0.029
286.73	-0.028
286.94	-0.028
287.15	-0.027
287.37	-0.026
287.58	-0.025
287.79	-0.025
288.00	-0.024
288.21	-0.023
288.42	-0.023
288.63	-0.022
288.85	-0.022
289.06	-0.021
289.27	-0.021
289.48	-0.021
289.69	-0.020
289.90	-0.019
290.11	-0.019
290.33	-0.018
290.54	-0.018
290.75	-0.017
290.96	-0.017
291.17	-0.017
291.38	-0.016
291.59	-0.015
291.81	-0.015
292.02	-0.015
292.23	-0.015
292.44	-0.014
292.65	-0.014
292.86	-0.014
293.07	-0.013
293.28	-0.013
293.50	-0.013
293.71	-0.013
293.92	-0.013
294.13	-0.012
294.34	-0.012
294.55	-0.012
294.76	-0.012
294.97	-0.012
295.19	-0.011
295.40	-0.011
295.61	-0.011
295.82	-0.011
296.03	-0.011
296.24	-0.011
296.45	-0.011
296.66	-0.011
296.87	-0.011
297.09	-0.011
297.30	-0.011
297.51	-0.011
297.72	-0.011
297.93	-0.010
298.14	-0.010
298.35	-0.010
298.56	-0.010
298.77	-0.010
298.99	-0.010
299.20	-0.009
299.41	-0.009
299.62	-0.010
299.83	-0.009
300.04	-0.009
300.25	-0.009
300.46	-0.009
300.67	-0.009
300.88	-0.009
301.10	-0.009
301.31	-0.009
301.52	-0.009
301.73	-0.009
301.94	-0.009
302.15	-0.009
302.36	-0.009
302.57	-0.009
302.78	-0.009
302.99	-0.009
303.20	-0.009
303.41	-0.009
303.63	-0.009
303.84	-0.009
304.05	-0.009
304.26	-0.009
304.47	-0.009
304.68	-0.009
304.89	-0.009
305.10	-0.009
305.31	-0.009
305.52	-0.009
305.73	-0.009
305.94	-0.009
306.15	-0.009
306.37	-0.009
306.58	-0.009
306.79	-0.008
307.00	-0.009
307.21	-0.008
307.42	-0.008
307.63	-0.009
307.84	-0.008
308.05	-0.008
308.26	-0.008
308.47	-0.008
308.68	-0.008
308.89	-0.008
309.10	-0.009
309.31	-0.008
309.52	-0.008
309.73	-0.009
309.95	-0.009
310.16	-0.009
310.37	-0.009
310.58	-0.009
310.79	-0.009
311.00	-0.009
311.21	-0.009
311.42	-0.009
311.63	-0.009
311.84	-0.009
312.05	-0.009
312.26	-0.008
312.47	-0.008
312.68	-0.008
312.89	-0.008
313.10	-0.008
313.31	-0.008
313.52	-0.008
313.73	-0.008
313.94	-0.008
314.15	-0.008
314.36	-0.008
314.57	-0.008
314.78	-0.008
314.99	-0.008
315.21	-0.008
315.42	-0.008
315.63	-0.008
315.84	-0.008
316.05	-0.008
316.26	-0.008
316.47	-0.008
316.68	-0.008
316.89	-0.008
317.10	-0.008
317.31	-0.008
317.52	-0.008
317.73	-0.008
317.94	-0.008
318.15	-0.008
318.36	-0.008
318.57	-0.007
318.78	-0.007
318.99	-0.007
319.20	-0.007
319.41	-0.007
319.62	-0.007
319.83	-0.007
320.04	-0.007
320.25	-0.007
320.46	-0.008
320.67	-0.008
320.88	-0.008
321.09	-0.008
321.30	-0.008
321.51	-0.008
321.72	-0.008
321.93	-0.008
322.14	-0.008
322.35	-0.008
322.56	-0.008
322.77	-0.008
322.98	-0.008
323.19	-0.008
323.40	-0.008
323.61	-0.008
323.82	-0.007
324.03	-0.007
324.24	-0.007
324.45	-0.007
324.66	-0.007
324.87	-0.007
325.08	-0.007
325.29	-0.007
325.50	-0.007
325.71	-0.007
325.92	-0.007
326.13	-0.007
326.34	-0.007
326.55	-0.007
326.76	-0.007
326.97	-0.007
327.18	-0.007
327.39	-0.007
327.60	-0.007
327.80	-0.007
328.01	-0.007
328.22	-0.007
328.43	-0.007
328.64	-0.006
328.85	-0.006
329.06	-0.006
329.27	-0.006
329.48	-0.006
329.69	-0.006
329.90	-0.006
330.11	-0.006
330.32	-0.006
330.53	-0.006
330.74	-0.006
330.95	-0.006
331.16	-0.006
331.37	-0.006
331.58	-0.006
331.79	-0.006
332.00	-0.006
332.21	-0.006
332.42	-0.006
332.63	-0.006
332.83	-0.006
333.04	-0.006
333.25	-0.006
333.46	-0.005
333.67	-0.006
333.88	-0.006
334.09	-0.006
334.30	-0.006
334.51	-0.006
334.72	-0.006
334.93	-0.006
335.14	-0.006
335.35	-0.005
335.56	-0.005
335.77	-0.005
335.98	-0.005
336.18	-0.005
336.39	-0.005
336.60	-0.005
336.81	-0.005
337.02	-0.005
337.23	-0.005
337.44	-0.005
337.65	-0.005
337.86	-0.005
338.07	-0.005
338.28	-0.005
338.49	-0.005
338.70	-0.005
338.91	-0.005
339.11	-0.005
339.32	-0.005
339.53	-0.004
339.74	-0.004
339.95	-0.004
340.16	-0.004
340.37	-0.004
340.58	-0.004
340.79	-0.004
341.00	-0.004
341.21	-0.004
341.41	-0.004
341.62	-0.004
341.83	-0.004
342.04	-0.004
342.25	-0.004
342.46	-0.004
342.67	-0.004
342.88	-0.004
343.09	-0.004
343.30	-0.003
343.50	-0.003
343.71	-0.003
343.92	-0.003
344.13	-0.003
344.34	-0.003
344.55	-0.003
344.76	-0.003
344.97	-0.003
345.18	-0.003
345.38	-0.003
345.59	-0.003
345.80	-0.003
346.01	-0.003
346.22	-0.003
346.43	-0.003
346.64	-0.003
346.85	-0.003
347.06	-0.003
347.26	-0.003
347.47	-0.003
347.68	-0.003
347.89	-0.003
348.10	-0.002
348.31	-0.003
348.52	-0.002
348.73	-0.003
348.93	-0.002
349.14	-0.003
349.35	-0.003
349.56	-0.002
349.77	-0.002
349.98	-0.002
350.19	-0.002
350.39	-0.002
350.60	-0.002
350.81	-0.002
351.02	-0.002
351.23	-0.002
351.44	-0.002
351.65	-0.002
351.86	-0.002
352.06	-0.002
352.27	-0.002
352.48	-0.002
352.69	-0.002
352.90	-0.002
353.11	-0.001
353.31	-0.001
353.52	-0.001
353.73	-0.001
353.94	-0.001
354.15	-0.001
354.36	-0.001
354.57	-0.001
354.77	-0.001
354.98	-0.001
355.19	-0.001
355.40	-0.001
355.61	-0.001
355.82	-0.001
356.02	-0.001
356.23	-0.001
356.44	-0.001
356.65	-0.001
356.86	-0.001
357.07	-0.001
357.27	-0.001
357.48	-0.001
357.69	-0.001
357.90	-0.001
358.11	-0.001
358.32	-0.001
358.52	-0.001
358.73	-0.001
358.94	-0.001
359.15	-0.001
359.36	-0.001
359.56	-0.001
359.77	-0.001
359.98	-0.000
360.19	-0.000
360.40	-0.000
360.61	-0.000
360.81	-0.000
361.02	-0.000
361.23	-0.000
361.44	-0.000
361.65	-0.000
361.85	-0.000
362.06	-0.000
362.27	-0.000
362.48	0.000
362.69	0.000
362.89	0.000
363.10	0.000
363.31	0.000
363.52	0.000
363.73	0.000
363.93	0.000
364.14	0.000
364.35	0.000
364.56	0.000
364.77	0.000
364.97	0.000
365.18	0.000
365.39	0.000
365.60	0.000
365.81	0.000
366.01	0.000
366.22	0.000
366.43	0.000
366.64	0.000
366.84	0.001
367.05	0.001
367.26	0.001
367.47	0.001
367.68	0.001
367.88	0.001
368.09	0.001
368.30	0.001
368.51	0.001
368.71	0.001
368.92	0.001
369.13	0.001
369.34	0.001
369.55	0.001
369.75	0.001
369.96	0.001
370.17	0.001
370.38	0.001
370.58	0.001
370.79	0.001
371.00	0.001
371.21	0.001
371.41	0.001
371.62	0.001
371.83	0.001
372.04	0.001
372.24	0.001
372.45	0.001
372.66	0.002
372.87	0.002
373.07	0.002
373.28	0.002
373.49	0.002
373.70	0.002
373.90	0.002
374.11	0.002
374.32	0.002
374.53	0.001
374.73	0.001
374.94	0.002
375.15	0.001
375.36	0.001
375.56	0.001
375.77	0.001
375.98	0.001
376.19	0.001
376.39	0.001
376.60	0.001
376.81	0.001
377.02	0.001
377.22	0.001
377.43	0.001
377.64	0.001
377.84	0.001
378.05	0.001
378.26	0.001
378.47	0.001
378.67	0.001
378.88	0.002
379.09	0.002
379.30	0.001
379.50	0.001
379.71	0.001
379.92	0.001
380.12	0.001
380.33	0.001
380.54	0.001
380.75	0.001
380.95	0.001
381.16	0.001
381.37	0.002
381.57	0.002
381.78	0.002
381.99	0.002
382.20	0.002
382.40	0.002
382.61	0.002
382.82	0.002
383.02	0.002
383.23	0.002
383.44	0.002
383.64	0.002
383.85	0.002
384.06	0.002
384.27	0.002
384.47	0.002
384.68	0.002
384.89	0.002
385.09	0.002
385.30	0.002
385.51	0.001
385.71	0.001
385.92	0.001
386.13	0.001
386.33	0.001
386.54	0.001
386.75	0.002
386.95	0.002
387.16	0.002
387.37	0.002
387.58	0.002
387.78	0.002
387.99	0.002
388.20	0.002
388.40	0.002
388.61	0.002
388.82	0.002
389.02	0.002
389.23	0.002
389.44	0.002
389.64	0.002
389.85	0.002
390.06	0.002
390.26	0.002
390.47	0.001
390.68	0.001
390.88	0.001
391.09	0.001
391.30	0.001
391.50	0.001
391.71	0.001
391.92	0.001
392.12	0.001
392.33	0.002
392.53	0.002
392.74	0.002
392.95	0.002
393.15	0.002
393.36	0.002
393.57	0.002
393.77	0.002
393.98	0.002
394.19	0.002
394.39	0.003
394.60	0.003
394.81	0.003
395.01	0.003
395.22	0.002
395.43	0.002
395.63	0.002
395.84	0.002
396.04	0.002
396.25	0.002
396.46	0.002
396.66	0.002
396.87	0.002
397.08	0.002
397.28	0.001
397.49	0.002
397.69	0.002
397.90	0.002
398.11	0.002
398.31	0.002
398.52	0.002
398.73	0.002
398.93	0.002
399.14	0.002
399.34	0.002
399.55	0.002
399.76	0.002
399.96	0.002
400.17	0.002
400.37	0.002
400.58	0.002
400.79	0.003
400.99	0.002
401.20	0.002
401.41	0.003
401.61	0.003
401.82	0.003
402.02	0.003
402.23	0.002
402.44	0.002
402.64	0.002
402.85	0.002
403.05	0.002
403.26	0.002
403.47	0.002
403.67	0.002
403.88	0.002
404.08	0.002
404.29	0.002
404.50	0.002
404.70	0.002
404.91	0.002
405.11	0.002
405.32	0.002
405.52	0.002
405.73	0.002
405.94	0.002
406.14	0.002
406.35	0.002
406.55	0.002
406.76	0.002
406.97	0.002
407.17	0.002
407.38	0.002
407.58	0.002
407.79	0.002
407.99	0.002
408.20	0.002
408.41	0.002
408.61	0.002
408.82	0.002
409.02	0.002
409.23	0.002
409.43	0.002
409.64	0.002
409.84	0.002
410.05	0.002
410.26	0.002
410.46	0.002
410.67	0.002
410.87	0.002
411.08	0.002
411.28	0.002
411.49	0.002
411.69	0.002
411.90	0.002
412.11	0.002
412.31	0.002
412.52	0.002
412.72	0.002
412.93	0.002
413.13	0.002
413.34	0.002
413.54	0.002
413.75	0.002
413.95	0.002
414.16	0.002
414.37	0.002
414.57	0.002
414.78	0.002
414.98	0.002
415.19	0.002
415.39	0.002
415.60	0.002
415.80	0.002
416.01	0.002
416.21	0.002
416.42	0.002
416.62	0.002
416.83	0.002
417.03	0.002
417.24	0.002
417.44	0.002
417.65	0.002
417.86	0.002
418.06	0.002
418.27	0.002
418.47	0.002
418.68	0.001
418.88	0.001
419.09	0.001
419.29	0.001
419.50	0.001
419.70	0.001
419.91	0.001
420.11	0.001
420.32	0.002
420.52	0.001
420.73	0.001
420.93	0.001
421.14	0.002
421.34	0.002
421.55	0.002
421.75	0.002
421.96	0.002
422.16	0.002
422.37	0.002
422.57	0.002
422.78	0.002
422.98	0.002
423.19	0.002
423.39	0.002
423.60	0.002
423.80	0.002
424.01	0.002
424.21	0.002
424.42	0.003
424.62	0.003
424.83	0.003
425.03	0.002
425.23	0.002
425.44	0.002
425.64	0.002
425.85	0.002
426.05	0.002
426.26	0.002
426.46	0.002
426.67	0.002
426.87	0.002
427.08	0.002
427.28	0.002
427.49	0.002
427.69	0.001
427.90	0.001
428.10	0.001
428.31	0.001
428.51	0.001
428.71	0.001
428.92	0.001
429.12	0.001
429.33	0.001
429.53	0.001
429.74	0.002
429.94	0.002
430.15	0.002
430.35	0.002
430.56	0.002
430.76	0.002
430.96	0.002
431.17	0.002
431.37	0.002
431.58	0.003
431.78	0.003
431.99	0.003
432.19	0.003
432.40	0.003
432.60	0.003
432.80	0.003
433.01	0.003
433.21	0.003
433.42	0.002
433.62	0.002
433.83	0.002
434.03	0.002
434.23	0.002
434.44	0.002
434.64	0.002
434.85	0.002
435.05	0.002
435.26	0.002
435.46	0.002
435.66	0.002
435.87	0.002
436.07	0.002
436.28	0.002
436.48	0.002
436.69	0.002
436.89	0.002
437.09	0.002
437.30	0.002
437.50	0.002
437.71	0.002
437.91	0.002
438.11	0.002
438.32	0.002
438.52	0.002
438.73	0.002
438.93	0.002
439.13	0.002
439.34	0.002
439.54	0.002
439.75	0.002
439.95	0.002
440.15	0.002
440.36	0.002
440.56	0.002
440.77	0.002
440.97	0.002
441.17	0.002
441.38	0.002
441.58	0.002
441.79	0.002
441.99	0.002
442.19	0.002
442.40	0.002
442.60	0.002
442.81	0.002
443.01	0.002
443.21	0.002
443.42	0.002
443.62	0.002
443.82	0.002
444.03	0.002
444.23	0.002
444.44	0.002
444.64	0.002
444.84	0.002
445.05	0.002
445.25	0.002
445.45	0.002
445.66	0.002
445.86	0.002
446.06	0.002
446.27	0.002
446.47	0.002
446.68	0.002
446.88	0.002
447.08	0.002
447.29	0.002
447.49	0.002
447.69	0.002
447.90	0.002
448.10	0.002
448.30	0.002
448.51	0.002
448.71	0.002
448.91	0.002
449.12	0.002
449.32	0.002
449.52	0.002
449.73	0.002
449.93	0.002
450.14	0.002
450.34	0.002
450.54	0.002
450.75	0.002
450.95	0.002
451.15	0.002
451.36	0.002
451.56	0.002
451.76	0.002
451.97	0.002
452.17	0.002
452.37	0.002
452.58	0.002
452.78	0.002
452.98	0.002
453.19	0.002
453.39	0.002
453.59	0.002
453.79	0.002
454.00	0.002
454.20	0.002
454.40	0.002
454.61	0.002
454.81	0.002
455.01	0.002
455.22	0.002
455.42	0.002
455.62	0.002
455.83	0.002
456.03	0.002
456.23	0.002
456.44	0.002
456.64	0.002
456.84	0.002
