SpectraSuite Data File
++++++++++++++++++++++++++++++++++++
Date: Mon Jun 15 09:14:10 PDT 2015
User: introlabs
Dark Spectrum Present: Yes
Reference Spectrum Present: Yes
Number of Sampled Component Spectra: 1
Spectrometers: USB4H08886
Integration Time (usec): 44366 (USB4H08886)
Spectra Averaged: 20 (USB4H08886)
Boxcar Smoothing: 5 (USB4H08886)
Correct for Electrical Dark: Yes (USB4H08886)
Strobe/Lamp Enabled: No (USB4H08886)
Correct for Detector Non-linearity: Yes (USB4H08886)
Correct for Stray Light: Yes (USB4H08886)
Number of Pixels in Processed Spectrum: 3648
>>>>>Begin Processed Spectral Data<<<<<
178.14	0.616
178.36	0.616
178.57	0.616
178.79	0.199
179.01	-1.063
179.22	-0.000
179.44	-0.000
179.65	0.450
179.87	0.298
180.08	0.147
180.30	0.002
180.52	0.348
180.73	0.306
180.95	0.143
181.16	0.063
181.38	0.063
181.59	0.050
181.81	0.014
182.03	0.019
182.24	0.032
182.46	0.030
182.67	0.033
182.89	0.020
183.10	0.020
183.32	0.013
183.54	0.013
183.75	0.012
183.97	0.007
184.18	0.007
184.40	0.000
184.61	0.007
184.83	0.013
185.04	0.004
185.26	0.013
185.48	0.012
185.69	0.013
185.91	0.016
186.12	0.012
186.34	0.025
186.55	0.025
186.77	0.024
186.98	0.015
187.20	0.001
187.42	0.014
187.63	0.007
187.85	0.013
188.06	0.017
188.28	0.018
188.49	0.021
188.71	0.015
188.92	0.017
189.14	0.011
189.36	0.010
189.57	0.025
189.79	0.016
190.00	0.023
190.22	0.011
190.43	0.013
190.65	0.008
190.86	0.017
191.08	0.016
191.29	0.013
191.51	0.016
191.72	0.013
191.94	0.006
192.16	0.013
192.37	0.001
192.59	0.016
192.80	0.008
193.02	0.010
193.23	0.015
193.45	0.011
193.66	0.017
193.88	0.017
194.09	0.016
194.31	0.010
194.52	0.006
194.74	0.007
194.95	-0.003
195.17	0.008
195.38	0.010
195.60	-0.008
195.81	-0.006
196.03	-0.007
196.25	-0.001
196.46	-0.001
196.68	0.003
196.89	0.009
197.11	0.012
197.32	0.010
197.54	-0.006
197.75	0.001
197.97	0.007
198.18	0.005
198.40	0.004
198.61	-0.001
198.83	-0.005
199.04	-0.001
199.26	-0.011
199.47	-0.014
199.69	0.001
199.90	0.017
200.12	0.009
200.33	0.010
200.55	0.011
200.76	0.009
200.98	0.006
201.19	0.010
201.41	0.006
201.62	0.006
201.84	0.012
202.05	0.004
202.27	0.001
202.48	-0.001
202.70	0.004
202.91	0.005
203.13	0.000
203.34	-0.002
203.56	-0.005
203.77	-0.002
203.99	-0.004
204.20	-0.012
204.42	-0.017
204.63	-0.019
204.85	-0.018
205.06	-0.025
205.28	-0.024
205.49	-0.014
205.71	-0.002
205.92	-0.000
206.14	-0.007
206.35	0.001
206.56	0.008
206.78	0.009
206.99	0.007
207.21	0.011
207.42	0.014
207.64	0.011
207.85	0.006
208.07	-0.001
208.28	0.003
208.50	0.014
208.71	0.015
208.93	0.016
209.14	0.022
209.36	0.022
209.57	0.026
209.79	0.031
210.00	0.030
210.22	0.037
210.43	0.039
210.64	0.037
210.86	0.026
211.07	0.020
211.29	0.020
211.50	0.018
211.72	0.010
211.93	0.002
212.15	-0.003
212.36	-0.010
212.58	-0.012
212.79	-0.017
213.01	-0.021
213.22	-0.013
213.43	-0.015
213.65	-0.015
213.86	-0.013
214.08	-0.001
214.29	0.000
214.51	0.001
214.72	0.007
214.94	0.002
215.15	0.008
215.36	0.007
215.58	0.002
215.79	0.000
216.01	0.000
216.22	-0.001
216.44	-0.007
216.65	-0.008
216.87	-0.008
217.08	-0.007
217.29	-0.003
217.51	-0.006
217.72	-0.004
217.94	0.002
218.15	0.007
218.37	0.005
218.58	0.004
218.80	0.011
219.01	0.011
219.22	0.008
219.44	0.010
219.65	0.010
219.87	0.011
220.08	0.008
220.30	0.003
220.51	-0.003
220.72	-0.006
220.94	-0.012
221.15	-0.016
221.37	-0.018
221.58	-0.015
221.79	-0.013
222.01	-0.019
222.22	-0.018
222.44	-0.015
222.65	-0.018
222.87	-0.015
223.08	-0.013
223.29	-0.011
223.51	-0.016
223.72	-0.018
223.94	-0.021
224.15	-0.024
224.36	-0.019
224.58	-0.025
224.79	-0.022
225.01	-0.023
225.22	-0.020
225.44	-0.020
225.65	-0.020
225.86	-0.016
226.08	-0.013
226.29	-0.013
226.51	-0.015
226.72	-0.016
226.93	-0.011
227.15	-0.019
227.36	-0.019
227.58	-0.023
227.79	-0.020
228.00	-0.022
228.22	-0.029
228.43	-0.029
228.65	-0.027
228.86	-0.027
229.07	-0.027
229.29	-0.029
229.50	-0.027
229.72	-0.027
229.93	-0.029
230.14	-0.032
230.36	-0.032
230.57	-0.030
230.78	-0.035
231.00	-0.041
231.21	-0.046
231.43	-0.048
231.64	-0.048
231.85	-0.047
232.07	-0.047
232.28	-0.045
232.50	-0.048
232.71	-0.050
232.92	-0.049
233.14	-0.049
233.35	-0.047
233.56	-0.044
233.78	-0.044
233.99	-0.047
234.21	-0.047
234.42	-0.047
234.63	-0.048
234.85	-0.048
235.06	-0.049
235.27	-0.048
235.49	-0.046
235.70	-0.048
235.91	-0.049
236.13	-0.049
236.34	-0.050
236.56	-0.050
236.77	-0.051
236.98	-0.050
237.20	-0.049
237.41	-0.048
237.62	-0.047
237.84	-0.048
238.05	-0.047
238.26	-0.047
238.48	-0.046
238.69	-0.045
238.91	-0.045
239.12	-0.045
239.33	-0.044
239.55	-0.042
239.76	-0.042
239.97	-0.042
240.19	-0.041
240.40	-0.040
240.61	-0.039
240.83	-0.039
241.04	-0.038
241.25	-0.037
241.47	-0.035
241.68	-0.034
241.89	-0.034
242.11	-0.033
242.32	-0.032
242.53	-0.032
242.75	-0.031
242.96	-0.031
243.17	-0.030
243.39	-0.029
243.60	-0.029
243.81	-0.029
244.03	-0.029
244.24	-0.028
244.45	-0.028
244.67	-0.027
244.88	-0.026
245.09	-0.026
245.31	-0.025
245.52	-0.024
245.73	-0.024
245.95	-0.023
246.16	-0.023
246.37	-0.023
246.59	-0.022
246.80	-0.022
247.01	-0.022
247.23	-0.022
247.44	-0.022
247.65	-0.021
247.87	-0.021
248.08	-0.021
248.29	-0.020
248.51	-0.020
248.72	-0.019
248.93	-0.019
249.15	-0.019
249.36	-0.019
249.57	-0.019
249.78	-0.019
250.00	-0.019
250.21	-0.018
250.42	-0.018
250.64	-0.018
250.85	-0.018
251.06	-0.017
251.28	-0.017
251.49	-0.017
251.70	-0.017
251.92	-0.017
252.13	-0.016
252.34	-0.016
252.55	-0.016
252.77	-0.016
252.98	-0.016
253.19	-0.016
253.41	-0.016
253.62	-0.015
253.83	-0.015
254.05	-0.014
254.26	-0.015
254.47	-0.015
254.68	-0.015
254.90	-0.015
255.11	-0.014
255.32	-0.014
255.54	-0.014
255.75	-0.014
255.96	-0.014
256.17	-0.014
256.39	-0.014
256.60	-0.013
256.81	-0.013
257.03	-0.013
257.24	-0.012
257.45	-0.013
257.66	-0.013
257.88	-0.013
258.09	-0.013
258.30	-0.013
258.51	-0.013
258.73	-0.013
258.94	-0.013
259.15	-0.013
259.37	-0.014
259.58	-0.014
259.79	-0.014
260.00	-0.014
260.22	-0.014
260.43	-0.014
260.64	-0.014
260.85	-0.014
261.07	-0.014
261.28	-0.014
261.49	-0.014
261.71	-0.014
261.92	-0.015
262.13	-0.014
262.34	-0.015
262.56	-0.015
262.77	-0.015
262.98	-0.015
263.19	-0.015
263.41	-0.016
263.62	-0.016
263.83	-0.017
264.04	-0.017
264.26	-0.017
264.47	-0.017
264.68	-0.017
264.89	-0.017
265.11	-0.018
265.32	-0.017
265.53	-0.017
265.74	-0.017
265.96	-0.017
266.17	-0.017
266.38	-0.017
266.59	-0.018
266.81	-0.018
267.02	-0.018
267.23	-0.019
267.44	-0.019
267.65	-0.020
267.87	-0.020
268.08	-0.020
268.29	-0.020
268.50	-0.020
268.72	-0.021
268.93	-0.020
269.14	-0.021
269.35	-0.021
269.57	-0.021
269.78	-0.021
269.99	-0.021
270.20	-0.021
270.41	-0.022
270.63	-0.022
270.84	-0.023
271.05	-0.023
271.26	-0.023
271.48	-0.023
271.69	-0.024
271.90	-0.024
272.11	-0.024
272.32	-0.024
272.54	-0.025
272.75	-0.025
272.96	-0.025
273.17	-0.025
273.39	-0.025
273.60	-0.025
273.81	-0.025
274.02	-0.025
274.23	-0.025
274.45	-0.025
274.66	-0.025
274.87	-0.026
275.08	-0.026
275.29	-0.026
275.51	-0.026
275.72	-0.026
275.93	-0.026
276.14	-0.026
276.35	-0.025
276.57	-0.026
276.78	-0.026
276.99	-0.026
277.20	-0.025
277.41	-0.025
277.63	-0.025
277.84	-0.025
278.05	-0.025
278.26	-0.025
278.47	-0.025
278.69	-0.025
278.90	-0.025
279.11	-0.024
279.32	-0.024
279.53	-0.024
279.74	-0.024
279.96	-0.024
280.17	-0.023
280.38	-0.023
280.59	-0.023
280.80	-0.022
281.02	-0.022
281.23	-0.022
281.44	-0.022
281.65	-0.022
281.86	-0.022
282.07	-0.021
282.29	-0.021
282.50	-0.021
282.71	-0.021
282.92	-0.021
283.13	-0.021
283.35	-0.021
283.56	-0.020
283.77	-0.020
283.98	-0.020
284.19	-0.019
284.40	-0.019
284.62	-0.018
284.83	-0.018
285.04	-0.017
285.25	-0.017
285.46	-0.016
285.67	-0.016
285.88	-0.015
286.10	-0.015
286.31	-0.014
286.52	-0.014
286.73	-0.013
286.94	-0.012
287.15	-0.012
287.37	-0.011
287.58	-0.011
287.79	-0.010
288.00	-0.010
288.21	-0.009
288.42	-0.009
288.63	-0.008
288.85	-0.008
289.06	-0.007
289.27	-0.007
289.48	-0.006
289.69	-0.006
289.90	-0.005
290.11	-0.005
290.33	-0.004
290.54	-0.004
290.75	-0.003
290.96	-0.003
291.17	-0.003
291.38	-0.003
291.59	-0.002
291.81	-0.002
292.02	-0.002
292.23	-0.001
292.44	-0.001
292.65	-0.001
292.86	-0.001
293.07	-0.001
293.28	-0.000
293.50	-0.000
293.71	0.000
293.92	0.000
294.13	0.001
294.34	0.001
294.55	0.001
294.76	0.001
294.97	0.002
295.19	0.002
295.40	0.002
295.61	0.002
295.82	0.002
296.03	0.002
296.24	0.002
296.45	0.002
296.66	0.002
296.87	0.002
297.09	0.002
297.30	0.002
297.51	0.002
297.72	0.002
297.93	0.003
298.14	0.003
298.35	0.003
298.56	0.003
298.77	0.003
298.99	0.003
299.20	0.003
299.41	0.003
299.62	0.003
299.83	0.003
300.04	0.003
300.25	0.003
300.46	0.003
300.67	0.003
300.88	0.003
301.10	0.003
301.31	0.004
301.52	0.003
301.73	0.003
301.94	0.003
302.15	0.003
302.36	0.003
302.57	0.003
302.78	0.003
302.99	0.003
303.20	0.003
303.41	0.004
303.63	0.004
303.84	0.004
304.05	0.004
304.26	0.004
304.47	0.004
304.68	0.004
304.89	0.004
305.10	0.004
305.31	0.004
305.52	0.004
305.73	0.004
305.94	0.004
306.15	0.004
306.37	0.004
306.58	0.004
306.79	0.004
307.00	0.004
307.21	0.005
307.42	0.005
307.63	0.005
307.84	0.005
308.05	0.005
308.26	0.005
308.47	0.005
308.68	0.005
308.89	0.005
309.10	0.005
309.31	0.005
309.52	0.005
309.73	0.005
309.95	0.005
310.16	0.004
310.37	0.005
310.58	0.005
310.79	0.005
311.00	0.005
311.21	0.005
311.42	0.005
311.63	0.005
311.84	0.005
312.05	0.005
312.26	0.005
312.47	0.005
312.68	0.005
312.89	0.005
313.10	0.005
313.31	0.005
313.52	0.005
313.73	0.006
313.94	0.006
314.15	0.006
314.36	0.006
314.57	0.006
314.78	0.006
314.99	0.006
315.21	0.006
315.42	0.006
315.63	0.006
315.84	0.006
316.05	0.006
316.26	0.006
316.47	0.006
316.68	0.006
316.89	0.006
317.10	0.006
317.31	0.006
317.52	0.006
317.73	0.006
317.94	0.006
318.15	0.006
318.36	0.006
318.57	0.006
318.78	0.006
318.99	0.006
319.20	0.007
319.41	0.007
319.62	0.007
319.83	0.007
320.04	0.007
320.25	0.007
320.46	0.007
320.67	0.007
320.88	0.006
321.09	0.006
321.30	0.006
321.51	0.006
321.72	0.006
321.93	0.006
322.14	0.006
322.35	0.006
322.56	0.006
322.77	0.006
322.98	0.006
323.19	0.006
323.40	0.006
323.61	0.006
323.82	0.007
324.03	0.007
324.24	0.007
324.45	0.007
324.66	0.007
324.87	0.007
325.08	0.007
325.29	0.007
325.50	0.007
325.71	0.007
325.92	0.007
326.13	0.007
326.34	0.007
326.55	0.007
326.76	0.007
326.97	0.007
327.18	0.007
327.39	0.007
327.60	0.007
327.80	0.007
328.01	0.007
328.22	0.007
328.43	0.007
328.64	0.007
328.85	0.007
329.06	0.007
329.27	0.007
329.48	0.007
329.69	0.007
329.90	0.007
330.11	0.007
330.32	0.007
330.53	0.007
330.74	0.006
330.95	0.006
331.16	0.006
331.37	0.007
331.58	0.007
331.79	0.007
332.00	0.007
332.21	0.007
332.42	0.007
332.63	0.007
332.83	0.007
333.04	0.007
333.25	0.007
333.46	0.007
333.67	0.007
333.88	0.007
334.09	0.007
334.30	0.007
334.51	0.007
334.72	0.007
334.93	0.006
335.14	0.006
335.35	0.006
335.56	0.006
335.77	0.006
335.98	0.006
336.18	0.006
336.39	0.006
336.60	0.006
336.81	0.006
337.02	0.006
337.23	0.006
337.44	0.006
337.65	0.006
337.86	0.006
338.07	0.006
338.28	0.006
338.49	0.006
338.70	0.006
338.91	0.006
339.11	0.006
339.32	0.006
339.53	0.006
339.74	0.005
339.95	0.005
340.16	0.005
340.37	0.005
340.58	0.005
340.79	0.005
341.00	0.005
341.21	0.005
341.41	0.005
341.62	0.005
341.83	0.005
342.04	0.005
342.25	0.004
342.46	0.004
342.67	0.004
342.88	0.004
343.09	0.004
343.30	0.004
343.50	0.004
343.71	0.004
343.92	0.004
344.13	0.004
344.34	0.004
344.55	0.004
344.76	0.004
344.97	0.004
345.18	0.004
345.38	0.004
345.59	0.004
345.80	0.004
346.01	0.004
346.22	0.004
346.43	0.004
346.64	0.004
346.85	0.004
347.06	0.004
347.26	0.004
347.47	0.004
347.68	0.004
347.89	0.004
348.10	0.004
348.31	0.003
348.52	0.003
348.73	0.003
348.93	0.003
349.14	0.003
349.35	0.003
349.56	0.003
349.77	0.003
349.98	0.003
350.19	0.003
350.39	0.003
350.60	0.003
350.81	0.003
351.02	0.003
351.23	0.003
351.44	0.003
351.65	0.003
351.86	0.003
352.06	0.003
352.27	0.003
352.48	0.003
352.69	0.003
352.90	0.003
353.11	0.003
353.31	0.003
353.52	0.003
353.73	0.003
353.94	0.003
354.15	0.003
354.36	0.003
354.57	0.003
354.77	0.003
354.98	0.003
355.19	0.003
355.40	0.003
355.61	0.003
355.82	0.003
356.02	0.003
356.23	0.003
356.44	0.003
356.65	0.003
356.86	0.003
357.07	0.003
357.27	0.003
357.48	0.003
357.69	0.003
357.90	0.003
358.11	0.003
358.32	0.003
358.52	0.003
358.73	0.003
358.94	0.003
359.15	0.002
359.36	0.003
359.56	0.002
359.77	0.002
359.98	0.002
360.19	0.002
360.40	0.002
360.61	0.002
360.81	0.002
361.02	0.003
361.23	0.003
361.44	0.003
361.65	0.003
361.85	0.002
362.06	0.002
362.27	0.003
362.48	0.003
362.69	0.002
362.89	0.002
363.10	0.002
363.31	0.002
363.52	0.002
363.73	0.002
363.93	0.002
364.14	0.003
364.35	0.002
364.56	0.002
364.77	0.002
364.97	0.002
365.18	0.002
365.39	0.002
365.60	0.002
365.81	0.002
366.01	0.002
366.22	0.002
366.43	0.002
366.64	0.002
366.84	0.002
367.05	0.002
367.26	0.002
367.47	0.002
367.68	0.003
367.88	0.003
368.09	0.003
368.30	0.003
368.51	0.003
368.71	0.003
368.92	0.003
369.13	0.003
369.34	0.003
369.55	0.003
369.75	0.002
369.96	0.002
370.17	0.002
370.38	0.002
370.58	0.002
370.79	0.002
371.00	0.002
371.21	0.002
371.41	0.003
371.62	0.002
371.83	0.002
372.04	0.003
372.24	0.003
372.45	0.002
372.66	0.002
372.87	0.002
373.07	0.002
373.28	0.002
373.49	0.002
373.70	0.002
373.90	0.002
374.11	0.002
374.32	0.002
374.53	0.002
374.73	0.002
374.94	0.002
375.15	0.002
375.36	0.002
375.56	0.002
375.77	0.002
375.98	0.002
376.19	0.002
376.39	0.002
376.60	0.002
376.81	0.002
377.02	0.002
377.22	0.002
377.43	0.002
377.64	0.002
377.84	0.002
378.05	0.002
378.26	0.002
378.47	0.002
378.67	0.002
378.88	0.002
379.09	0.002
379.30	0.002
379.50	0.002
379.71	0.002
379.92	0.002
380.12	0.002
380.33	0.002
380.54	0.002
380.75	0.002
380.95	0.002
381.16	0.002
381.37	0.002
381.57	0.002
381.78	0.002
381.99	0.002
382.20	0.002
382.40	0.002
382.61	0.002
382.82	0.002
383.02	0.002
383.23	0.002
383.44	0.002
383.64	0.002
383.85	0.002
384.06	0.002
384.27	0.002
384.47	0.002
384.68	0.002
384.89	0.002
385.09	0.002
385.30	0.002
385.51	0.001
385.71	0.001
385.92	0.001
386.13	0.001
386.33	0.001
386.54	0.001
386.75	0.001
386.95	0.001
387.16	0.001
387.37	0.001
387.58	0.001
387.78	0.002
387.99	0.002
388.20	0.002
388.40	0.002
388.61	0.002
388.82	0.002
389.02	0.002
389.23	0.002
389.44	0.002
389.64	0.002
389.85	0.001
390.06	0.001
390.26	0.001
390.47	0.001
390.68	0.001
390.88	0.001
391.09	0.001
391.30	0.001
391.50	0.001
391.71	0.001
391.92	0.001
392.12	0.001
392.33	0.001
392.53	0.001
392.74	0.001
392.95	0.001
393.15	0.001
393.36	0.001
393.57	0.001
393.77	0.001
393.98	0.001
394.19	0.002
394.39	0.002
394.60	0.002
394.81	0.001
395.01	0.001
395.22	0.001
395.43	0.001
395.63	0.001
395.84	0.001
396.04	0.001
396.25	0.001
396.46	0.001
396.66	0.001
396.87	0.001
397.08	0.001
397.28	0.001
397.49	0.001
397.69	0.001
397.90	0.001
398.11	0.001
398.31	0.001
398.52	0.001
398.73	0.001
398.93	0.001
399.14	0.001
399.34	0.001
399.55	0.001
399.76	0.001
399.96	0.001
400.17	0.001
400.37	0.001
400.58	0.001
400.79	0.001
400.99	0.001
401.20	0.001
401.41	0.001
401.61	0.001
401.82	0.001
402.02	0.001
402.23	0.001
402.44	0.001
402.64	0.001
402.85	0.001
403.05	0.001
403.26	0.001
403.47	0.001
403.67	0.001
403.88	0.001
404.08	0.001
404.29	0.001
404.50	0.001
404.70	0.001
404.91	0.001
405.11	0.001
405.32	0.001
405.52	0.000
405.73	0.000
405.94	0.000
406.14	0.000
406.35	0.000
406.55	0.000
406.76	0.000
406.97	0.000
407.17	0.000
407.38	0.000
407.58	0.000
407.79	0.000
407.99	0.000
408.20	0.000
408.41	0.000
408.61	0.000
408.82	0.000
409.02	0.000
409.23	0.000
409.43	0.000
409.64	0.000
409.84	0.000
410.05	0.000
410.26	0.000
410.46	0.000
410.67	0.000
410.87	0.000
411.08	0.000
411.28	0.000
411.49	0.001
411.69	0.000
411.90	0.000
412.11	0.000
412.31	0.000
412.52	0.000
412.72	0.000
412.93	0.000
413.13	0.000
413.34	0.000
413.54	0.000
413.75	0.000
413.95	0.000
414.16	0.000
414.37	0.000
414.57	0.000
414.78	0.000
414.98	0.000
415.19	0.000
415.39	0.000
415.60	0.000
415.80	0.000
416.01	0.000
416.21	0.000
416.42	0.000
416.62	0.000
416.83	0.000
417.03	0.000
417.24	0.000
417.44	0.000
417.65	-0.000
417.86	-0.000
418.06	-0.000
418.27	-0.000
418.47	-0.000
418.68	-0.000
418.88	-0.001
419.09	-0.001
419.29	-0.001
419.50	-0.000
419.70	-0.000
419.91	-0.000
420.11	-0.000
420.32	-0.000
420.52	-0.000
420.73	-0.000
420.93	-0.000
421.14	-0.000
421.34	-0.000
421.55	-0.000
421.75	-0.000
421.96	-0.000
422.16	-0.000
422.37	-0.000
422.57	-0.000
422.78	-0.000
422.98	-0.000
423.19	-0.000
423.39	-0.000
423.60	-0.000
423.80	-0.000
424.01	0.000
424.21	0.000
424.42	0.000
424.62	0.001
424.83	0.001
425.03	0.000
425.23	0.000
425.44	0.000
425.64	0.000
425.85	0.000
426.05	0.000
426.26	0.000
426.46	0.000
426.67	-0.000
426.87	-0.000
427.08	-0.000
427.28	-0.000
427.49	-0.001
427.69	-0.001
427.90	-0.001
428.10	-0.001
428.31	-0.001
428.51	-0.001
428.71	-0.001
428.92	-0.001
429.12	-0.001
429.33	-0.001
429.53	-0.001
429.74	-0.000
429.94	-0.000
430.15	-0.000
430.35	-0.000
430.56	-0.000
430.76	0.000
430.96	0.000
431.17	0.000
431.37	0.000
431.58	0.000
431.78	0.000
431.99	0.000
432.19	0.000
432.40	0.000
432.60	-0.000
432.80	-0.000
433.01	-0.000
433.21	-0.000
433.42	-0.000
433.62	-0.000
433.83	-0.000
434.03	-0.000
434.23	-0.000
434.44	-0.000
434.64	-0.000
434.85	-0.000
435.05	-0.000
435.26	-0.000
435.46	-0.000
435.66	-0.000
435.87	-0.000
436.07	-0.001
436.28	-0.001
436.48	-0.001
436.69	-0.001
436.89	-0.001
437.09	-0.001
437.30	-0.001
437.50	-0.000
437.71	-0.000
437.91	-0.000
438.11	-0.000
438.32	-0.000
438.52	-0.000
438.73	-0.000
438.93	-0.000
439.13	-0.000
439.34	-0.000
439.54	-0.000
439.75	-0.000
439.95	-0.000
440.15	-0.000
440.36	-0.000
440.56	-0.000
440.77	-0.000
440.97	-0.000
441.17	-0.000
441.38	-0.000
441.58	-0.001
441.79	-0.001
441.99	-0.001
442.19	-0.001
442.40	-0.001
442.60	-0.001
442.81	-0.001
443.01	-0.001
443.21	-0.001
443.42	-0.001
443.62	-0.001
443.82	-0.000
444.03	-0.000
444.23	-0.000
444.44	-0.000
444.64	-0.000
444.84	-0.000
445.05	-0.000
445.25	-0.000
445.45	-0.000
445.66	-0.001
445.86	-0.000
446.06	-0.000
446.27	-0.000
446.47	-0.000
446.68	-0.000
446.88	-0.000
447.08	-0.000
447.29	-0.000
447.49	-0.000
447.69	-0.000
447.90	-0.000
448.10	-0.000
448.30	-0.000
448.51	-0.000
448.71	-0.000
448.91	-0.000
449.12	-0.000
449.32	-0.000
449.52	-0.000
449.73	-0.000
449.93	-0.000
450.14	-0.000
450.34	-0.000
450.54	-0.000
450.75	-0.000
450.95	-0.000
451.15	-0.000
451.36	-0.000
451.56	-0.000
451.76	-0.000
451.97	-0.001
452.17	-0.001
452.37	-0.001
452.58	-0.001
452.78	-0.001
452.98	-0.001
453.19	-0.001
453.39	-0.000
453.59	-0.000
453.79	-0.000
454.00	-0.000
454.20	-0.000
454.40	-0.000
454.61	-0.000
454.81	-0.000
455.01	-0.000
455.22	-0.000
455.42	-0.000
455.62	-0.000
455.83	-0.000
456.03	-0.000
456.23	-0.000
456.44	-0.000
456.64	-0.000
456.84	-0.000
457.04	-0.000
457.25	-0.000
457.45	-0.000
457.65	-0.000
457.86	-0.000
458.06	-0.000
458.26	-0.000
458.47	-0.000
458.67	-0.000
458.87	-0.000
459.07	-0.000
459.28	-0.001
459.48	-0.000
