SpectraSuite Data File
++++++++++++++++++++++++++++++++++++
Date: Mon Jun 15 09:37:52 PDT 2015
User: introlabs
Dark Spectrum Present: Yes
Reference Spectrum Present: Yes
Number of Sampled Component Spectra: 1
Spectrometers: USB4H08886
Integration Time (usec): 44366 (USB4H08886)
Spectra Averaged: 20 (USB4H08886)
Boxcar Smoothing: 5 (USB4H08886)
Correct for Electrical Dark: Yes (USB4H08886)
Strobe/Lamp Enabled: No (USB4H08886)
Correct for Detector Non-linearity: Yes (USB4H08886)
Correct for Stray Light: Yes (USB4H08886)
Number of Pixels in Processed Spectrum: 3648
>>>>>Begin Processed Spectral Data<<<<<
178.14	0.839
178.36	0.839
178.57	0.839
178.79	1.513
179.01	-0.902
179.22	0.358
179.44	0.119
179.65	0.208
179.87	0.168
180.08	0.359
180.30	0.369
180.52	0.239
180.73	0.173
180.95	0.074
181.16	0.021
181.38	-0.001
181.59	0.001
181.81	-0.008
182.03	-0.002
182.24	0.011
182.46	0.007
182.67	0.001
182.89	0.008
183.10	0.012
183.32	0.008
183.54	0.002
183.75	0.011
183.97	0.016
184.18	0.020
184.40	0.014
184.61	0.029
184.83	0.030
185.04	0.036
185.26	0.040
185.48	0.034
185.69	0.036
185.91	0.036
186.12	0.019
186.34	0.027
186.55	0.021
186.77	0.028
186.98	0.014
187.20	0.003
187.42	0.002
187.63	0.001
187.85	0.011
188.06	0.008
188.28	0.013
188.49	0.028
188.71	0.021
188.92	0.022
189.14	0.017
189.36	0.026
189.57	0.034
189.79	0.027
190.00	0.021
190.22	0.016
190.43	0.023
190.65	0.022
190.86	0.023
191.08	0.024
191.29	0.030
191.51	0.030
191.72	0.020
191.94	0.023
192.16	0.025
192.37	0.027
192.59	0.024
192.80	0.018
193.02	0.022
193.23	0.026
193.45	0.022
193.66	0.016
193.88	0.016
194.09	0.019
194.31	0.015
194.52	0.015
194.74	0.011
194.95	0.012
195.17	0.018
195.38	0.014
195.60	0.001
195.81	0.012
196.03	0.017
196.25	0.031
196.46	0.032
196.68	0.034
196.89	0.037
197.11	0.046
197.32	0.045
197.54	0.031
197.75	0.042
197.97	0.047
198.18	0.039
198.40	0.038
198.61	0.026
198.83	0.025
199.04	0.019
199.26	0.009
199.47	-0.003
199.69	0.007
199.90	0.018
200.12	0.005
200.33	0.013
200.55	0.012
200.76	0.005
200.98	0.007
201.19	-0.000
201.41	0.002
201.62	0.014
201.84	0.021
202.05	0.013
202.27	0.009
202.48	0.014
202.70	0.009
202.91	0.007
203.13	0.010
203.34	0.006
203.56	0.014
203.77	0.019
203.99	0.011
204.20	0.006
204.42	0.011
204.63	0.014
204.85	0.009
205.06	0.003
205.28	0.007
205.49	0.009
205.71	0.017
205.92	0.015
206.14	0.013
206.35	0.019
206.56	0.029
206.78	0.020
206.99	0.021
207.21	0.026
207.42	0.031
207.64	0.029
207.85	0.032
208.07	0.030
208.28	0.028
208.50	0.035
208.71	0.035
208.93	0.031
209.14	0.041
209.36	0.034
209.57	0.039
209.79	0.035
210.00	0.033
210.22	0.034
210.43	0.024
210.64	0.028
210.86	0.016
211.07	0.011
211.29	0.008
211.50	0.003
211.72	-0.002
211.93	-0.008
212.15	-0.004
212.36	-0.007
212.58	-0.007
212.79	0.007
213.01	0.003
213.22	0.009
213.43	0.009
213.65	0.009
213.86	0.008
214.08	0.021
214.29	0.023
214.51	0.021
214.72	0.019
214.94	0.017
215.15	0.017
215.36	0.015
215.58	0.012
215.79	0.015
216.01	0.022
216.22	0.022
216.44	0.019
216.65	0.017
216.87	0.023
217.08	0.028
217.29	0.036
217.51	0.030
217.72	0.030
217.94	0.037
218.15	0.038
218.37	0.032
218.58	0.029
218.80	0.031
219.01	0.032
219.22	0.030
219.44	0.031
219.65	0.024
219.87	0.026
220.08	0.023
220.30	0.019
220.51	0.022
220.72	0.021
220.94	0.026
221.15	0.027
221.37	0.023
221.58	0.021
221.79	0.026
222.01	0.019
222.22	0.015
222.44	0.016
222.65	0.014
222.87	0.010
223.08	0.011
223.29	0.009
223.51	0.007
223.72	0.011
223.94	0.010
224.15	0.006
224.36	0.010
224.58	0.011
224.79	0.017
225.01	0.016
225.22	0.011
225.44	0.013
225.65	0.016
225.86	0.017
226.08	0.015
226.29	0.010
226.51	0.006
226.72	0.007
226.93	0.009
227.15	0.004
227.36	0.002
227.58	0.001
227.79	0.004
228.00	0.003
228.22	-0.003
228.43	-0.004
228.65	0.002
228.86	0.006
229.07	0.005
229.29	0.004
229.50	0.003
229.72	0.004
229.93	0.006
230.14	0.004
230.36	0.000
230.57	-0.001
230.78	-0.003
231.00	-0.009
231.21	-0.016
231.43	-0.015
231.64	-0.016
231.85	-0.015
232.07	-0.016
232.28	-0.018
232.50	-0.022
232.71	-0.024
232.92	-0.022
233.14	-0.023
233.35	-0.018
233.56	-0.015
233.78	-0.018
233.99	-0.022
234.21	-0.023
234.42	-0.022
234.63	-0.022
234.85	-0.021
235.06	-0.021
235.27	-0.020
235.49	-0.019
235.70	-0.022
235.91	-0.023
236.13	-0.021
236.34	-0.020
236.56	-0.021
236.77	-0.022
236.98	-0.022
237.20	-0.023
237.41	-0.022
237.62	-0.022
237.84	-0.023
238.05	-0.022
238.26	-0.022
238.48	-0.023
238.69	-0.021
238.91	-0.021
239.12	-0.021
239.33	-0.020
239.55	-0.019
239.76	-0.018
239.97	-0.018
240.19	-0.016
240.40	-0.017
240.61	-0.016
240.83	-0.016
241.04	-0.015
241.25	-0.015
241.47	-0.014
241.68	-0.012
241.89	-0.012
242.11	-0.012
242.32	-0.011
242.53	-0.011
242.75	-0.009
242.96	-0.008
243.17	-0.007
243.39	-0.007
243.60	-0.006
243.81	-0.006
244.03	-0.006
244.24	-0.006
244.45	-0.005
244.67	-0.005
244.88	-0.004
245.09	-0.004
245.31	-0.004
245.52	-0.004
245.73	-0.004
245.95	-0.004
246.16	-0.003
246.37	-0.003
246.59	-0.003
246.80	-0.003
247.01	-0.002
247.23	-0.003
247.44	-0.002
247.65	-0.003
247.87	-0.003
248.08	-0.003
248.29	-0.002
248.51	-0.002
248.72	-0.001
248.93	-0.002
249.15	-0.001
249.36	-0.001
249.57	-0.001
249.78	-0.001
250.00	-0.001
250.21	-0.000
250.42	-0.000
250.64	-0.000
250.85	0.000
251.06	-0.000
251.28	0.000
251.49	0.000
251.70	0.000
251.92	0.001
252.13	0.001
252.34	0.002
252.55	0.002
252.77	0.002
252.98	0.002
253.19	0.002
253.41	0.002
253.62	0.002
253.83	0.003
254.05	0.002
254.26	0.002
254.47	0.002
254.68	0.001
254.90	0.001
255.11	0.002
255.32	0.002
255.54	0.002
255.75	0.002
255.96	0.002
256.17	0.001
256.39	0.002
256.60	0.002
256.81	0.002
257.03	0.002
257.24	0.002
257.45	0.001
257.66	0.001
257.88	0.001
258.09	0.000
258.30	0.000
258.51	0.000
258.73	0.000
258.94	0.000
259.15	-0.000
259.37	-0.000
259.58	-0.000
259.79	-0.000
260.00	-0.000
260.22	0.000
260.43	0.000
260.64	-0.000
260.85	-0.001
261.07	-0.001
261.28	-0.001
261.49	-0.001
261.71	-0.001
261.92	-0.002
262.13	-0.002
262.34	-0.002
262.56	-0.003
262.77	-0.003
262.98	-0.003
263.19	-0.003
263.41	-0.004
263.62	-0.004
263.83	-0.004
264.04	-0.005
264.26	-0.005
264.47	-0.005
264.68	-0.005
264.89	-0.005
265.11	-0.006
265.32	-0.005
265.53	-0.006
265.74	-0.006
265.96	-0.006
266.17	-0.006
266.38	-0.006
266.59	-0.006
266.81	-0.006
267.02	-0.007
267.23	-0.007
267.44	-0.008
267.65	-0.009
267.87	-0.009
268.08	-0.009
268.29	-0.009
268.50	-0.009
268.72	-0.010
268.93	-0.010
269.14	-0.010
269.35	-0.011
269.57	-0.011
269.78	-0.011
269.99	-0.011
270.20	-0.012
270.41	-0.011
270.63	-0.012
270.84	-0.012
271.05	-0.013
271.26	-0.013
271.48	-0.014
271.69	-0.014
271.90	-0.014
272.11	-0.014
272.32	-0.015
272.54	-0.015
272.75	-0.015
272.96	-0.016
273.17	-0.016
273.39	-0.015
273.60	-0.015
273.81	-0.015
274.02	-0.016
274.23	-0.015
274.45	-0.016
274.66	-0.016
274.87	-0.016
275.08	-0.016
275.29	-0.016
275.51	-0.016
275.72	-0.016
275.93	-0.016
276.14	-0.016
276.35	-0.016
276.57	-0.016
276.78	-0.016
276.99	-0.016
277.20	-0.016
277.41	-0.016
277.63	-0.016
277.84	-0.016
278.05	-0.016
278.26	-0.015
278.47	-0.016
278.69	-0.015
278.90	-0.015
279.11	-0.015
279.32	-0.015
279.53	-0.015
279.74	-0.015
279.96	-0.015
280.17	-0.014
280.38	-0.014
280.59	-0.014
280.80	-0.014
281.02	-0.013
281.23	-0.013
281.44	-0.013
281.65	-0.013
281.86	-0.013
282.07	-0.013
282.29	-0.012
282.50	-0.012
282.71	-0.012
282.92	-0.012
283.13	-0.012
283.35	-0.012
283.56	-0.012
283.77	-0.011
283.98	-0.011
284.19	-0.011
284.40	-0.010
284.62	-0.010
284.83	-0.010
285.04	-0.009
285.25	-0.008
285.46	-0.008
285.67	-0.007
285.88	-0.007
286.10	-0.006
286.31	-0.005
286.52	-0.005
286.73	-0.004
286.94	-0.003
287.15	-0.003
287.37	-0.002
287.58	-0.002
287.79	-0.001
288.00	-0.000
288.21	0.000
288.42	0.001
288.63	0.001
288.85	0.002
289.06	0.002
289.27	0.003
289.48	0.003
289.69	0.003
289.90	0.004
290.11	0.004
290.33	0.005
290.54	0.005
290.75	0.006
290.96	0.006
291.17	0.006
291.38	0.006
291.59	0.007
291.81	0.007
292.02	0.008
292.23	0.008
292.44	0.008
292.65	0.008
292.86	0.008
293.07	0.009
293.28	0.009
293.50	0.009
293.71	0.009
293.92	0.010
294.13	0.010
294.34	0.010
294.55	0.010
294.76	0.010
294.97	0.011
295.19	0.011
295.40	0.011
295.61	0.011
295.82	0.011
296.03	0.011
296.24	0.011
296.45	0.011
296.66	0.011
296.87	0.011
297.09	0.010
297.30	0.011
297.51	0.011
297.72	0.011
297.93	0.011
298.14	0.011
298.35	0.011
298.56	0.011
298.77	0.011
298.99	0.011
299.20	0.011
299.41	0.011
299.62	0.011
299.83	0.011
300.04	0.011
300.25	0.011
300.46	0.011
300.67	0.011
300.88	0.011
301.10	0.011
301.31	0.011
301.52	0.011
301.73	0.011
301.94	0.011
302.15	0.011
302.36	0.011
302.57	0.011
302.78	0.011
302.99	0.011
303.20	0.011
303.41	0.011
303.63	0.011
303.84	0.011
304.05	0.011
304.26	0.011
304.47	0.011
304.68	0.011
304.89	0.011
305.10	0.011
305.31	0.011
305.52	0.011
305.73	0.011
305.94	0.011
306.15	0.011
306.37	0.011
306.58	0.011
306.79	0.011
307.00	0.011
307.21	0.011
307.42	0.011
307.63	0.011
307.84	0.011
308.05	0.011
308.26	0.011
308.47	0.011
308.68	0.011
308.89	0.011
309.10	0.011
309.31	0.011
309.52	0.011
309.73	0.010
309.95	0.010
310.16	0.010
310.37	0.010
310.58	0.010
310.79	0.010
311.00	0.010
311.21	0.010
311.42	0.010
311.63	0.010
311.84	0.010
312.05	0.010
312.26	0.010
312.47	0.010
312.68	0.010
312.89	0.010
313.10	0.011
313.31	0.011
313.52	0.011
313.73	0.011
313.94	0.011
314.15	0.011
314.36	0.011
314.57	0.011
314.78	0.011
314.99	0.010
315.21	0.010
315.42	0.010
315.63	0.010
315.84	0.010
316.05	0.010
316.26	0.010
316.47	0.010
316.68	0.010
316.89	0.010
317.10	0.010
317.31	0.010
317.52	0.010
317.73	0.010
317.94	0.010
318.15	0.010
318.36	0.010
318.57	0.010
318.78	0.010
318.99	0.010
319.20	0.010
319.41	0.010
319.62	0.010
319.83	0.010
320.04	0.010
320.25	0.010
320.46	0.010
320.67	0.010
320.88	0.010
321.09	0.010
321.30	0.010
321.51	0.010
321.72	0.010
321.93	0.010
322.14	0.010
322.35	0.010
322.56	0.010
322.77	0.010
322.98	0.010
323.19	0.010
323.40	0.010
323.61	0.010
323.82	0.010
324.03	0.010
324.24	0.010
324.45	0.010
324.66	0.010
324.87	0.010
325.08	0.010
325.29	0.010
325.50	0.010
325.71	0.010
325.92	0.010
326.13	0.010
326.34	0.010
326.55	0.010
326.76	0.010
326.97	0.010
327.18	0.010
327.39	0.010
327.60	0.010
327.80	0.010
328.01	0.010
328.22	0.010
328.43	0.010
328.64	0.010
328.85	0.010
329.06	0.010
329.27	0.010
329.48	0.010
329.69	0.010
329.90	0.010
330.11	0.010
330.32	0.010
330.53	0.010
330.74	0.010
330.95	0.010
331.16	0.010
331.37	0.010
331.58	0.010
331.79	0.010
332.00	0.010
332.21	0.010
332.42	0.010
332.63	0.011
332.83	0.011
333.04	0.011
333.25	0.011
333.46	0.011
333.67	0.011
333.88	0.011
334.09	0.011
334.30	0.011
334.51	0.011
334.72	0.011
334.93	0.011
335.14	0.011
335.35	0.011
335.56	0.011
335.77	0.011
335.98	0.011
336.18	0.011
336.39	0.011
336.60	0.011
336.81	0.011
337.02	0.011
337.23	0.011
337.44	0.011
337.65	0.011
337.86	0.011
338.07	0.011
338.28	0.011
338.49	0.011
338.70	0.011
338.91	0.011
339.11	0.011
339.32	0.011
339.53	0.011
339.74	0.011
339.95	0.011
340.16	0.011
340.37	0.011
340.58	0.011
340.79	0.012
341.00	0.012
341.21	0.012
341.41	0.012
341.62	0.012
341.83	0.011
342.04	0.011
342.25	0.011
342.46	0.011
342.67	0.011
342.88	0.012
343.09	0.012
343.30	0.012
343.50	0.012
343.71	0.012
343.92	0.012
344.13	0.012
344.34	0.012
344.55	0.012
344.76	0.012
344.97	0.012
345.18	0.012
345.38	0.012
345.59	0.012
345.80	0.012
346.01	0.012
346.22	0.012
346.43	0.012
346.64	0.012
346.85	0.012
347.06	0.012
347.26	0.012
347.47	0.012
347.68	0.012
347.89	0.012
348.10	0.012
348.31	0.012
348.52	0.012
348.73	0.012
348.93	0.012
349.14	0.012
349.35	0.012
349.56	0.012
349.77	0.013
349.98	0.012
350.19	0.013
350.39	0.013
350.60	0.013
350.81	0.013
351.02	0.013
351.23	0.013
351.44	0.013
351.65	0.013
351.86	0.013
352.06	0.013
352.27	0.013
352.48	0.013
352.69	0.013
352.90	0.013
353.11	0.013
353.31	0.014
353.52	0.013
353.73	0.013
353.94	0.013
354.15	0.013
354.36	0.013
354.57	0.013
354.77	0.014
354.98	0.014
355.19	0.014
355.40	0.014
355.61	0.014
355.82	0.014
356.02	0.014
356.23	0.014
356.44	0.014
356.65	0.014
356.86	0.014
357.07	0.014
357.27	0.014
357.48	0.014
357.69	0.014
357.90	0.014
358.11	0.014
358.32	0.014
358.52	0.014
358.73	0.014
358.94	0.014
359.15	0.014
359.36	0.014
359.56	0.014
359.77	0.014
359.98	0.014
360.19	0.014
360.40	0.014
360.61	0.014
360.81	0.014
361.02	0.014
361.23	0.014
361.44	0.014
361.65	0.014
361.85	0.014
362.06	0.014
362.27	0.014
362.48	0.014
362.69	0.014
362.89	0.014
363.10	0.014
363.31	0.014
363.52	0.014
363.73	0.014
363.93	0.014
364.14	0.014
364.35	0.014
364.56	0.014
364.77	0.014
364.97	0.014
365.18	0.014
365.39	0.014
365.60	0.014
365.81	0.014
366.01	0.014
366.22	0.014
366.43	0.014
366.64	0.014
366.84	0.014
367.05	0.014
367.26	0.014
367.47	0.014
367.68	0.014
367.88	0.014
368.09	0.014
368.30	0.015
368.51	0.015
368.71	0.015
368.92	0.015
369.13	0.015
369.34	0.015
369.55	0.015
369.75	0.015
369.96	0.015
370.17	0.015
370.38	0.015
370.58	0.015
370.79	0.015
371.00	0.015
371.21	0.015
371.41	0.015
371.62	0.015
371.83	0.015
372.04	0.015
372.24	0.015
372.45	0.015
372.66	0.015
372.87	0.015
373.07	0.015
373.28	0.015
373.49	0.015
373.70	0.015
373.90	0.015
374.11	0.015
374.32	0.015
374.53	0.015
374.73	0.015
374.94	0.015
375.15	0.015
375.36	0.015
375.56	0.015
375.77	0.015
375.98	0.015
376.19	0.014
376.39	0.014
376.60	0.014
376.81	0.014
377.02	0.015
377.22	0.015
377.43	0.015
377.64	0.014
377.84	0.015
378.05	0.015
378.26	0.015
378.47	0.015
378.67	0.015
378.88	0.015
379.09	0.015
379.30	0.015
379.50	0.015
379.71	0.015
379.92	0.015
380.12	0.015
380.33	0.015
380.54	0.015
380.75	0.015
380.95	0.015
381.16	0.015
381.37	0.015
381.57	0.015
381.78	0.015
381.99	0.015
382.20	0.015
382.40	0.015
382.61	0.015
382.82	0.015
383.02	0.015
383.23	0.015
383.44	0.015
383.64	0.015
383.85	0.015
384.06	0.015
384.27	0.015
384.47	0.015
384.68	0.015
384.89	0.015
385.09	0.015
385.30	0.015
385.51	0.014
385.71	0.014
385.92	0.014
386.13	0.014
386.33	0.014
386.54	0.014
386.75	0.014
386.95	0.014
387.16	0.014
387.37	0.014
387.58	0.014
387.78	0.015
387.99	0.015
388.20	0.015
388.40	0.015
388.61	0.015
388.82	0.015
389.02	0.015
389.23	0.015
389.44	0.015
389.64	0.015
389.85	0.015
390.06	0.014
390.26	0.014
390.47	0.014
390.68	0.014
390.88	0.014
391.09	0.014
391.30	0.014
391.50	0.014
391.71	0.014
391.92	0.014
392.12	0.014
392.33	0.014
392.53	0.015
392.74	0.015
392.95	0.015
393.15	0.015
393.36	0.015
393.57	0.015
393.77	0.015
393.98	0.015
394.19	0.015
394.39	0.015
394.60	0.015
394.81	0.015
395.01	0.015
395.22	0.015
395.43	0.015
395.63	0.015
395.84	0.015
396.04	0.015
396.25	0.015
396.46	0.014
396.66	0.015
396.87	0.014
397.08	0.014
397.28	0.014
397.49	0.014
397.69	0.014
397.90	0.014
398.11	0.014
398.31	0.014
398.52	0.014
398.73	0.014
398.93	0.014
399.14	0.014
399.34	0.014
399.55	0.014
399.76	0.014
399.96	0.014
400.17	0.015
400.37	0.015
400.58	0.015
400.79	0.015
400.99	0.015
401.20	0.015
401.41	0.015
401.61	0.015
401.82	0.015
402.02	0.015
402.23	0.015
402.44	0.015
402.64	0.014
402.85	0.014
403.05	0.014
403.26	0.014
403.47	0.014
403.67	0.014
403.88	0.014
404.08	0.014
404.29	0.014
404.50	0.014
404.70	0.014
404.91	0.014
405.11	0.014
405.32	0.014
405.52	0.014
405.73	0.014
405.94	0.014
406.14	0.014
406.35	0.014
406.55	0.014
406.76	0.014
406.97	0.014
407.17	0.014
407.38	0.014
407.58	0.014
407.79	0.014
407.99	0.014
408.20	0.014
408.41	0.014
408.61	0.014
408.82	0.014
409.02	0.014
409.23	0.014
409.43	0.014
409.64	0.014
409.84	0.014
410.05	0.014
410.26	0.014
410.46	0.014
410.67	0.014
410.87	0.014
411.08	0.014
411.28	0.014
411.49	0.014
411.69	0.014
411.90	0.014
412.11	0.014
412.31	0.014
412.52	0.014
412.72	0.014
412.93	0.013
413.13	0.013
413.34	0.014
413.54	0.014
413.75	0.014
413.95	0.014
414.16	0.014
414.37	0.014
414.57	0.014
414.78	0.014
414.98	0.014
415.19	0.014
415.39	0.014
415.60	0.014
415.80	0.014
416.01	0.014
416.21	0.014
416.42	0.014
416.62	0.014
416.83	0.014
417.03	0.014
417.24	0.013
417.44	0.013
417.65	0.013
417.86	0.013
418.06	0.013
418.27	0.013
418.47	0.013
418.68	0.013
418.88	0.013
419.09	0.013
419.29	0.013
419.50	0.013
419.70	0.013
419.91	0.013
420.11	0.013
420.32	0.013
420.52	0.013
420.73	0.013
420.93	0.013
421.14	0.013
421.34	0.013
421.55	0.013
421.75	0.013
421.96	0.013
422.16	0.013
422.37	0.013
422.57	0.013
422.78	0.013
422.98	0.013
423.19	0.013
423.39	0.013
423.60	0.013
423.80	0.014
424.01	0.014
424.21	0.014
424.42	0.014
424.62	0.014
424.83	0.014
425.03	0.014
425.23	0.014
425.44	0.014
425.64	0.014
425.85	0.013
426.05	0.013
426.26	0.013
426.46	0.013
426.67	0.013
426.87	0.013
427.08	0.013
427.28	0.013
427.49	0.013
427.69	0.013
427.90	0.013
428.10	0.013
428.31	0.013
428.51	0.013
428.71	0.013
428.92	0.013
429.12	0.013
429.33	0.013
429.53	0.013
429.74	0.013
429.94	0.013
430.15	0.013
430.35	0.013
430.56	0.013
430.76	0.013
430.96	0.013
431.17	0.013
431.37	0.013
431.58	0.014
431.78	0.014
431.99	0.014
432.19	0.014
432.40	0.014
432.60	0.014
432.80	0.014
433.01	0.014
433.21	0.014
433.42	0.013
433.62	0.013
433.83	0.013
434.03	0.013
434.23	0.013
434.44	0.013
434.64	0.013
434.85	0.013
435.05	0.013
435.26	0.013
435.46	0.013
435.66	0.013
435.87	0.013
436.07	0.013
436.28	0.013
436.48	0.013
436.69	0.013
436.89	0.013
437.09	0.013
437.30	0.013
437.50	0.013
437.71	0.013
437.91	0.013
438.11	0.013
438.32	0.013
438.52	0.013
438.73	0.013
438.93	0.013
439.13	0.013
439.34	0.013
439.54	0.013
439.75	0.013
439.95	0.013
440.15	0.013
440.36	0.013
440.56	0.013
440.77	0.013
440.97	0.013
441.17	0.013
441.38	0.013
441.58	0.013
441.79	0.013
441.99	0.013
442.19	0.013
442.40	0.013
442.60	0.013
442.81	0.013
443.01	0.013
443.21	0.013
443.42	0.013
443.62	0.013
443.82	0.013
444.03	0.013
444.23	0.013
444.44	0.013
444.64	0.013
444.84	0.013
445.05	0.013
445.25	0.013
445.45	0.013
445.66	0.013
445.86	0.013
446.06	0.013
446.27	0.013
446.47	0.013
446.68	0.013
446.88	0.013
447.08	0.013
447.29	0.013
447.49	0.013
447.69	0.013
447.90	0.013
448.10	0.013
448.30	0.013
448.51	0.013
448.71	0.013
448.91	0.013
449.12	0.013
449.32	0.013
449.52	0.013
449.73	0.013
449.93	0.013
450.14	0.013
450.34	0.013
450.54	0.013
450.75	0.013
450.95	0.013
451.15	0.013
451.36	0.013
451.56	0.013
451.76	0.013
451.97	0.013
452.17	0.013
452.37	0.013
452.58	0.013
452.78	0.013
452.98	0.013
453.19	0.013
453.39	0.013
453.59	0.013
453.79	0.013
454.00	0.013
454.20	0.013
454.40	0.013
454.61	0.013
454.81	0.013
455.01	0.012
455.22	0.012
455.42	0.012
455.62	0.012
455.83	0.012
456.03	0.012
456.23	0.012
456.44	0.012
456.64	0.013
456.84	0.013
457.04	0.013
457.25	0.013
457.45	0.013
457.65	0.013
457.86	0.013
458.06	0.013
458.26	0.013
458.47	0.012
458.67	0.012
458.87	0.012
459.07	0.012
459.28	0.012
459.48	0.012
459.68	0.012
459.89	0.012
460.09	0.012
460.29	0.012
460.49	0.012
460.70	0.012
460.90	0.013
461.10	0.013
461.31	0.013
461.51	0.013
461.71	0.013
461.91	0.013
462.12	0.013
462.32	0.012
462.52	0.013
462.72	0.013
462.93	0.012
463.13	0.012
463.33	0.012
463.53	0.012
463.74	0.012
463.94	0.012
464.14	0.012
464.35	0.012
