SpectraSuite Data File
++++++++++++++++++++++++++++++++++++
Date: Mon Jun 15 08:30:54 PDT 2015
User: introlabs
Dark Spectrum Present: Yes
Reference Spectrum Present: Yes
Number of Sampled Component Spectra: 1
Spectrometers: USB4H08886
Integration Time (usec): 44366 (USB4H08886)
Spectra Averaged: 20 (USB4H08886)
Boxcar Smoothing: 5 (USB4H08886)
Correct for Electrical Dark: Yes (USB4H08886)
Strobe/Lamp Enabled: No (USB4H08886)
Correct for Detector Non-linearity: Yes (USB4H08886)
Correct for Stray Light: Yes (USB4H08886)
Number of Pixels in Processed Spectrum: 3648
>>>>>Begin Processed Spectral Data<<<<<
178.14	0.270
178.36	0.270
178.57	0.270
178.79	-0.000
179.01	-0.884
179.22	-0.000
179.44	-0.000
179.65	-0.170
179.87	-0.159
180.08	0.137
180.30	0.090
180.52	-0.071
180.73	0.165
180.95	0.189
181.16	0.081
181.38	0.060
181.59	0.033
181.81	0.006
182.03	0.016
182.24	0.020
182.46	0.023
182.67	0.019
182.89	0.020
183.10	0.022
183.32	0.008
183.54	0.002
183.75	-0.001
183.97	0.007
184.18	0.007
184.40	0.000
184.61	0.012
184.83	0.009
185.04	0.007
185.26	0.006
185.48	0.002
185.69	0.004
185.91	0.005
186.12	0.016
186.34	0.014
186.55	0.011
186.77	0.017
186.98	0.007
187.20	-0.004
187.42	0.005
187.63	0.009
187.85	0.013
188.06	0.017
188.28	0.025
188.49	0.022
188.71	0.018
188.92	0.019
189.14	0.012
189.36	0.021
189.57	0.031
189.79	0.020
190.00	0.020
190.22	0.011
190.43	0.012
190.65	-0.002
190.86	-0.002
191.08	0.004
191.29	0.007
191.51	0.019
191.72	0.004
191.94	0.005
192.16	0.007
192.37	0.004
192.59	0.017
192.80	0.012
193.02	0.019
193.23	0.024
193.45	0.018
193.66	0.020
193.88	0.008
194.09	0.012
194.31	0.010
194.52	0.012
194.74	0.012
194.95	0.004
195.17	0.008
195.38	0.010
195.60	-0.000
195.81	0.005
196.03	0.002
196.25	0.015
196.46	0.016
196.68	0.017
196.89	0.025
197.11	0.033
197.32	0.031
197.54	0.028
197.75	0.036
197.97	0.033
198.18	0.027
198.40	0.028
198.61	0.012
198.83	0.010
199.04	0.010
199.26	-0.006
199.47	-0.009
199.69	-0.004
199.90	0.003
200.12	-0.009
200.33	-0.007
200.55	-0.003
200.76	-0.010
200.98	-0.009
201.19	-0.010
201.41	-0.011
201.62	-0.002
201.84	-0.002
202.05	-0.005
202.27	-0.008
202.48	-0.004
202.70	0.006
202.91	0.006
203.13	0.008
203.34	0.011
203.56	0.009
203.77	0.016
203.99	0.008
204.20	0.006
204.42	0.005
204.63	0.004
204.85	0.002
205.06	-0.005
205.28	-0.007
205.49	-0.006
205.71	0.003
205.92	0.005
206.14	-0.003
206.35	0.008
206.56	0.011
206.78	0.015
206.99	0.018
207.21	0.024
207.42	0.026
207.64	0.024
207.85	0.023
208.07	0.021
208.28	0.025
208.50	0.033
208.71	0.029
208.93	0.026
209.14	0.023
209.36	0.019
209.57	0.022
209.79	0.027
210.00	0.028
210.22	0.033
210.43	0.027
210.64	0.026
210.86	0.017
211.07	0.015
211.29	0.021
211.50	0.016
211.72	0.009
211.93	0.002
212.15	-0.006
212.36	-0.008
212.58	-0.007
212.79	-0.008
213.01	-0.012
213.22	-0.007
213.43	-0.009
213.65	-0.017
213.86	-0.016
214.08	-0.007
214.29	-0.003
214.51	0.000
214.72	-0.001
214.94	-0.005
215.15	-0.000
215.36	0.003
215.58	-0.002
215.79	-0.004
216.01	0.002
216.22	0.001
216.44	-0.000
216.65	-0.004
216.87	-0.002
217.08	0.003
217.29	0.007
217.51	0.008
217.72	0.008
217.94	0.017
218.15	0.026
218.37	0.018
218.58	0.022
218.80	0.024
219.01	0.020
219.22	0.017
219.44	0.019
219.65	0.019
219.87	0.021
220.08	0.014
220.30	0.005
220.51	0.002
220.72	0.007
220.94	-0.001
221.15	-0.002
221.37	-0.002
221.58	0.000
221.79	-0.005
222.01	-0.010
222.22	-0.017
222.44	-0.016
222.65	-0.011
222.87	-0.015
223.08	-0.016
223.29	-0.012
223.51	-0.015
223.72	-0.013
223.94	-0.018
224.15	-0.017
224.36	-0.016
224.58	-0.019
224.79	-0.013
225.01	-0.018
225.22	-0.014
225.44	-0.016
225.65	-0.013
225.86	-0.011
226.08	-0.009
226.29	-0.009
226.51	-0.007
226.72	-0.005
226.93	0.002
227.15	-0.007
227.36	-0.004
227.58	-0.009
227.79	-0.004
228.00	-0.005
228.22	-0.010
228.43	-0.014
228.65	-0.015
228.86	-0.016
229.07	-0.016
229.29	-0.021
229.50	-0.020
229.72	-0.022
229.93	-0.020
230.14	-0.023
230.36	-0.023
230.57	-0.021
230.78	-0.021
231.00	-0.022
231.21	-0.025
231.43	-0.025
231.64	-0.024
231.85	-0.022
232.07	-0.021
232.28	-0.020
232.50	-0.023
232.71	-0.025
232.92	-0.026
233.14	-0.027
233.35	-0.025
233.56	-0.023
233.78	-0.025
233.99	-0.026
234.21	-0.027
234.42	-0.028
234.63	-0.029
234.85	-0.027
235.06	-0.028
235.27	-0.027
235.49	-0.026
235.70	-0.027
235.91	-0.028
236.13	-0.027
236.34	-0.028
236.56	-0.029
236.77	-0.029
236.98	-0.028
237.20	-0.028
237.41	-0.026
237.62	-0.026
237.84	-0.027
238.05	-0.027
238.26	-0.027
238.48	-0.027
238.69	-0.024
238.91	-0.023
239.12	-0.023
239.33	-0.023
239.55	-0.022
239.76	-0.022
239.97	-0.021
240.19	-0.020
240.40	-0.020
240.61	-0.019
240.83	-0.019
241.04	-0.019
241.25	-0.019
241.47	-0.018
241.68	-0.017
241.89	-0.017
242.11	-0.017
242.32	-0.016
242.53	-0.016
242.75	-0.016
242.96	-0.015
243.17	-0.015
243.39	-0.014
243.60	-0.014
243.81	-0.014
244.03	-0.014
244.24	-0.013
244.45	-0.013
244.67	-0.012
244.88	-0.011
245.09	-0.011
245.31	-0.010
245.52	-0.010
245.73	-0.009
245.95	-0.009
246.16	-0.008
246.37	-0.008
246.59	-0.008
246.80	-0.008
247.01	-0.008
247.23	-0.007
247.44	-0.008
247.65	-0.008
247.87	-0.007
248.08	-0.007
248.29	-0.007
248.51	-0.007
248.72	-0.006
248.93	-0.006
249.15	-0.006
249.36	-0.006
249.57	-0.006
249.78	-0.006
250.00	-0.006
250.21	-0.005
250.42	-0.005
250.64	-0.005
250.85	-0.004
251.06	-0.004
251.28	-0.004
251.49	-0.004
251.70	-0.004
251.92	-0.004
252.13	-0.003
252.34	-0.003
252.55	-0.003
252.77	-0.003
252.98	-0.003
253.19	-0.003
253.41	-0.003
253.62	-0.003
253.83	-0.002
254.05	-0.002
254.26	-0.002
254.47	-0.002
254.68	-0.002
254.90	-0.002
255.11	-0.001
255.32	-0.001
255.54	-0.001
255.75	-0.001
255.96	-0.001
256.17	-0.002
256.39	-0.002
256.60	-0.001
256.81	-0.002
257.03	-0.001
257.24	-0.001
257.45	-0.002
257.66	-0.002
257.88	-0.001
258.09	-0.001
258.30	-0.001
258.51	-0.001
258.73	-0.001
258.94	-0.001
259.15	-0.001
259.37	-0.001
259.58	-0.001
259.79	-0.001
260.00	-0.001
260.22	-0.001
260.43	-0.001
260.64	-0.001
260.85	-0.001
261.07	-0.001
261.28	-0.001
261.49	-0.001
261.71	-0.002
261.92	-0.001
262.13	-0.001
262.34	-0.001
262.56	-0.001
262.77	-0.001
262.98	-0.002
263.19	-0.002
263.41	-0.002
263.62	-0.002
263.83	-0.002
264.04	-0.002
264.26	-0.003
264.47	-0.003
264.68	-0.003
264.89	-0.003
265.11	-0.003
265.32	-0.003
265.53	-0.003
265.74	-0.003
265.96	-0.003
266.17	-0.003
266.38	-0.003
266.59	-0.003
266.81	-0.003
267.02	-0.003
267.23	-0.004
267.44	-0.004
267.65	-0.005
267.87	-0.005
268.08	-0.005
268.29	-0.005
268.50	-0.005
268.72	-0.005
268.93	-0.005
269.14	-0.006
269.35	-0.006
269.57	-0.006
269.78	-0.006
269.99	-0.005
270.20	-0.005
270.41	-0.006
270.63	-0.006
270.84	-0.007
271.05	-0.007
271.26	-0.007
271.48	-0.007
271.69	-0.007
271.90	-0.008
272.11	-0.008
272.32	-0.009
272.54	-0.009
272.75	-0.008
272.96	-0.009
273.17	-0.009
273.39	-0.009
273.60	-0.009
273.81	-0.009
274.02	-0.009
274.23	-0.009
274.45	-0.009
274.66	-0.009
274.87	-0.009
275.08	-0.009
275.29	-0.009
275.51	-0.009
275.72	-0.009
275.93	-0.009
276.14	-0.009
276.35	-0.009
276.57	-0.009
276.78	-0.009
276.99	-0.009
277.20	-0.009
277.41	-0.009
277.63	-0.009
277.84	-0.009
278.05	-0.009
278.26	-0.009
278.47	-0.009
278.69	-0.009
278.90	-0.008
279.11	-0.008
279.32	-0.008
279.53	-0.008
279.74	-0.008
279.96	-0.008
280.17	-0.007
280.38	-0.007
280.59	-0.007
280.80	-0.007
281.02	-0.007
281.23	-0.007
281.44	-0.007
281.65	-0.007
281.86	-0.006
282.07	-0.007
282.29	-0.007
282.50	-0.006
282.71	-0.006
282.92	-0.006
283.13	-0.006
283.35	-0.006
283.56	-0.006
283.77	-0.005
283.98	-0.005
284.19	-0.005
284.40	-0.005
284.62	-0.005
284.83	-0.004
285.04	-0.004
285.25	-0.004
285.46	-0.003
285.67	-0.003
285.88	-0.002
286.10	-0.002
286.31	-0.001
286.52	-0.000
286.73	-0.000
286.94	0.000
287.15	0.001
287.37	0.001
287.58	0.002
287.79	0.002
288.00	0.003
288.21	0.003
288.42	0.004
288.63	0.004
288.85	0.004
289.06	0.005
289.27	0.005
289.48	0.005
289.69	0.005
289.90	0.006
290.11	0.006
290.33	0.006
290.54	0.006
290.75	0.007
290.96	0.007
291.17	0.007
291.38	0.008
291.59	0.008
291.81	0.008
292.02	0.008
292.23	0.008
292.44	0.009
292.65	0.009
292.86	0.009
293.07	0.009
293.28	0.009
293.50	0.010
293.71	0.010
293.92	0.010
294.13	0.010
294.34	0.010
294.55	0.010
294.76	0.010
294.97	0.010
295.19	0.010
295.40	0.010
295.61	0.010
295.82	0.010
296.03	0.010
296.24	0.010
296.45	0.010
296.66	0.010
296.87	0.010
297.09	0.010
297.30	0.010
297.51	0.010
297.72	0.010
297.93	0.010
298.14	0.010
298.35	0.010
298.56	0.010
298.77	0.010
298.99	0.010
299.20	0.010
299.41	0.011
299.62	0.011
299.83	0.011
300.04	0.011
300.25	0.011
300.46	0.011
300.67	0.011
300.88	0.011
301.10	0.012
301.31	0.011
301.52	0.012
301.73	0.012
301.94	0.012
302.15	0.011
302.36	0.011
302.57	0.011
302.78	0.011
302.99	0.011
303.20	0.011
303.41	0.011
303.63	0.011
303.84	0.011
304.05	0.011
304.26	0.011
304.47	0.012
304.68	0.012
304.89	0.012
305.10	0.012
305.31	0.012
305.52	0.012
305.73	0.012
305.94	0.012
306.15	0.012
306.37	0.012
306.58	0.012
306.79	0.012
307.00	0.012
307.21	0.012
307.42	0.012
307.63	0.012
307.84	0.012
308.05	0.013
308.26	0.012
308.47	0.012
308.68	0.013
308.89	0.012
309.10	0.012
309.31	0.012
309.52	0.013
309.73	0.012
309.95	0.012
310.16	0.012
310.37	0.012
310.58	0.012
310.79	0.012
311.00	0.012
311.21	0.012
311.42	0.012
311.63	0.012
311.84	0.012
312.05	0.012
312.26	0.012
312.47	0.013
312.68	0.013
312.89	0.013
313.10	0.013
313.31	0.013
313.52	0.013
313.73	0.013
313.94	0.013
314.15	0.013
314.36	0.013
314.57	0.013
314.78	0.014
314.99	0.013
315.21	0.014
315.42	0.013
315.63	0.013
315.84	0.013
316.05	0.013
316.26	0.013
316.47	0.013
316.68	0.013
316.89	0.013
317.10	0.013
317.31	0.014
317.52	0.013
317.73	0.014
317.94	0.014
318.15	0.014
318.36	0.014
318.57	0.014
318.78	0.014
318.99	0.014
319.20	0.014
319.41	0.014
319.62	0.014
319.83	0.014
320.04	0.014
320.25	0.014
320.46	0.014
320.67	0.014
320.88	0.014
321.09	0.014
321.30	0.014
321.51	0.014
321.72	0.014
321.93	0.014
322.14	0.014
322.35	0.014
322.56	0.014
322.77	0.014
322.98	0.014
323.19	0.014
323.40	0.014
323.61	0.014
323.82	0.014
324.03	0.014
324.24	0.014
324.45	0.014
324.66	0.014
324.87	0.014
325.08	0.014
325.29	0.014
325.50	0.014
325.71	0.014
325.92	0.014
326.13	0.014
326.34	0.014
326.55	0.013
326.76	0.014
326.97	0.014
327.18	0.014
327.39	0.014
327.60	0.014
327.80	0.014
328.01	0.014
328.22	0.014
328.43	0.014
328.64	0.014
328.85	0.014
329.06	0.014
329.27	0.013
329.48	0.013
329.69	0.013
329.90	0.013
330.11	0.014
330.32	0.013
330.53	0.013
330.74	0.013
330.95	0.013
331.16	0.013
331.37	0.013
331.58	0.013
331.79	0.014
332.00	0.013
332.21	0.013
332.42	0.013
332.63	0.013
332.83	0.013
333.04	0.013
333.25	0.013
333.46	0.013
333.67	0.013
333.88	0.013
334.09	0.013
334.30	0.013
334.51	0.013
334.72	0.013
334.93	0.013
335.14	0.013
335.35	0.013
335.56	0.013
335.77	0.012
335.98	0.012
336.18	0.012
336.39	0.012
336.60	0.012
336.81	0.012
337.02	0.012
337.23	0.012
337.44	0.012
337.65	0.012
337.86	0.012
338.07	0.012
338.28	0.012
338.49	0.012
338.70	0.012
338.91	0.012
339.11	0.012
339.32	0.012
339.53	0.011
339.74	0.011
339.95	0.011
340.16	0.011
340.37	0.011
340.58	0.011
340.79	0.011
341.00	0.011
341.21	0.011
341.41	0.010
341.62	0.010
341.83	0.010
342.04	0.010
342.25	0.010
342.46	0.010
342.67	0.010
342.88	0.010
343.09	0.010
343.30	0.009
343.50	0.009
343.71	0.009
343.92	0.009
344.13	0.009
344.34	0.009
344.55	0.009
344.76	0.009
344.97	0.009
345.18	0.009
345.38	0.009
345.59	0.009
345.80	0.009
346.01	0.009
346.22	0.009
346.43	0.009
346.64	0.008
346.85	0.008
347.06	0.008
347.26	0.008
347.47	0.008
347.68	0.008
347.89	0.008
348.10	0.008
348.31	0.008
348.52	0.008
348.73	0.008
348.93	0.008
349.14	0.008
349.35	0.007
349.56	0.007
349.77	0.007
349.98	0.007
350.19	0.007
350.39	0.007
350.60	0.007
350.81	0.007
351.02	0.007
351.23	0.007
351.44	0.007
351.65	0.007
351.86	0.007
352.06	0.007
352.27	0.007
352.48	0.007
352.69	0.007
352.90	0.007
353.11	0.007
353.31	0.007
353.52	0.007
353.73	0.007
353.94	0.007
354.15	0.007
354.36	0.006
354.57	0.006
354.77	0.006
354.98	0.006
355.19	0.006
355.40	0.006
355.61	0.006
355.82	0.006
356.02	0.006
356.23	0.006
356.44	0.006
356.65	0.006
356.86	0.006
357.07	0.006
357.27	0.006
357.48	0.006
357.69	0.006
357.90	0.006
358.11	0.006
358.32	0.006
358.52	0.006
358.73	0.006
358.94	0.006
359.15	0.006
359.36	0.006
359.56	0.006
359.77	0.006
359.98	0.005
360.19	0.005
360.40	0.006
360.61	0.006
360.81	0.006
361.02	0.006
361.23	0.006
361.44	0.006
361.65	0.005
361.85	0.005
362.06	0.005
362.27	0.005
362.48	0.006
362.69	0.005
362.89	0.005
363.10	0.005
363.31	0.005
363.52	0.005
363.73	0.005
363.93	0.005
364.14	0.005
364.35	0.005
364.56	0.005
364.77	0.005
364.97	0.005
365.18	0.005
365.39	0.005
365.60	0.005
365.81	0.005
366.01	0.005
366.22	0.005
366.43	0.005
366.64	0.005
366.84	0.005
367.05	0.005
367.26	0.005
367.47	0.005
367.68	0.005
367.88	0.005
368.09	0.005
368.30	0.005
368.51	0.005
368.71	0.005
368.92	0.005
369.13	0.005
369.34	0.005
369.55	0.005
369.75	0.005
369.96	0.005
370.17	0.005
370.38	0.005
370.58	0.005
370.79	0.005
371.00	0.005
371.21	0.004
371.41	0.005
371.62	0.004
371.83	0.004
372.04	0.004
372.24	0.004
372.45	0.004
372.66	0.004
372.87	0.004
373.07	0.004
373.28	0.004
373.49	0.004
373.70	0.004
373.90	0.004
374.11	0.004
374.32	0.004
374.53	0.004
374.73	0.004
374.94	0.004
375.15	0.004
375.36	0.004
375.56	0.004
375.77	0.004
375.98	0.004
376.19	0.004
376.39	0.004
376.60	0.004
376.81	0.004
377.02	0.004
377.22	0.004
377.43	0.004
377.64	0.004
377.84	0.004
378.05	0.004
378.26	0.004
378.47	0.004
378.67	0.004
378.88	0.004
379.09	0.004
379.30	0.004
379.50	0.004
379.71	0.004
379.92	0.004
380.12	0.004
380.33	0.003
380.54	0.004
380.75	0.003
380.95	0.003
381.16	0.003
381.37	0.003
381.57	0.003
381.78	0.003
381.99	0.004
382.20	0.004
382.40	0.004
382.61	0.004
382.82	0.004
383.02	0.004
383.23	0.004
383.44	0.004
383.64	0.004
383.85	0.004
384.06	0.004
384.27	0.004
384.47	0.004
384.68	0.004
384.89	0.004
385.09	0.004
385.30	0.003
385.51	0.003
385.71	0.003
385.92	0.003
386.13	0.003
386.33	0.003
386.54	0.003
386.75	0.003
386.95	0.003
387.16	0.003
387.37	0.003
387.58	0.003
387.78	0.003
387.99	0.003
388.20	0.003
388.40	0.003
388.61	0.003
388.82	0.003
389.02	0.003
389.23	0.003
389.44	0.003
389.64	0.003
389.85	0.003
390.06	0.003
390.26	0.003
390.47	0.003
390.68	0.003
390.88	0.003
391.09	0.003
391.30	0.003
391.50	0.003
391.71	0.003
391.92	0.003
392.12	0.003
392.33	0.003
392.53	0.003
392.74	0.003
392.95	0.003
393.15	0.003
393.36	0.003
393.57	0.003
393.77	0.003
393.98	0.003
394.19	0.003
394.39	0.003
394.60	0.003
394.81	0.003
395.01	0.003
395.22	0.003
395.43	0.003
395.63	0.003
395.84	0.003
396.04	0.003
396.25	0.003
396.46	0.002
396.66	0.002
396.87	0.002
397.08	0.002
397.28	0.002
397.49	0.002
397.69	0.002
397.90	0.002
398.11	0.003
398.31	0.002
398.52	0.002
398.73	0.003
398.93	0.003
399.14	0.002
399.34	0.002
399.55	0.002
399.76	0.002
399.96	0.002
400.17	0.002
400.37	0.002
400.58	0.002
400.79	0.002
400.99	0.002
401.20	0.002
401.41	0.002
401.61	0.003
401.82	0.002
402.02	0.003
402.23	0.003
402.44	0.002
402.64	0.003
402.85	0.002
403.05	0.002
403.26	0.002
403.47	0.002
403.67	0.002
403.88	0.002
404.08	0.002
404.29	0.002
404.50	0.002
404.70	0.002
404.91	0.002
405.11	0.002
405.32	0.002
405.52	0.002
405.73	0.002
405.94	0.002
406.14	0.002
406.35	0.002
406.55	0.002
406.76	0.002
406.97	0.002
407.17	0.002
407.38	0.002
407.58	0.002
407.79	0.002
407.99	0.002
408.20	0.002
408.41	0.002
408.61	0.002
408.82	0.002
409.02	0.002
409.23	0.002
409.43	0.002
409.64	0.002
409.84	0.002
410.05	0.002
410.26	0.002
410.46	0.002
410.67	0.002
410.87	0.002
411.08	0.002
411.28	0.002
411.49	0.002
411.69	0.002
411.90	0.002
412.11	0.002
412.31	0.002
412.52	0.002
412.72	0.002
412.93	0.002
413.13	0.002
413.34	0.002
413.54	0.002
413.75	0.002
413.95	0.002
414.16	0.002
414.37	0.002
414.57	0.002
414.78	0.002
414.98	0.002
415.19	0.002
415.39	0.002
415.60	0.002
415.80	0.002
416.01	0.002
416.21	0.002
416.42	0.002
416.62	0.001
416.83	0.001
417.03	0.001
417.24	0.001
417.44	0.001
417.65	0.001
417.86	0.001
418.06	0.001
418.27	0.001
418.47	0.001
418.68	0.001
418.88	0.001
419.09	0.001
419.29	0.001
419.50	0.001
419.70	0.001
419.91	0.001
420.11	0.001
420.32	0.001
420.52	0.001
420.73	0.001
420.93	0.001
421.14	0.001
421.34	0.001
421.55	0.001
421.75	0.001
421.96	0.001
422.16	0.001
422.37	0.001
422.57	0.001
422.78	0.001
422.98	0.001
423.19	0.001
423.39	0.001
423.60	0.001
423.80	0.001
424.01	0.001
424.21	0.002
424.42	0.002
424.62	0.002
424.83	0.002
425.03	0.002
425.23	0.001
425.44	0.001
425.64	0.001
425.85	0.001
426.05	0.001
426.26	0.001
426.46	0.001
426.67	0.001
426.87	0.001
427.08	0.001
427.28	0.001
427.49	0.001
427.69	0.001
427.90	0.001
428.10	0.001
428.31	0.001
428.51	0.001
428.71	0.001
428.92	0.001
429.12	0.001
429.33	0.001
429.53	0.001
429.74	0.001
429.94	0.001
430.15	0.001
430.35	0.001
430.56	0.001
430.76	0.001
430.96	0.001
431.17	0.001
431.37	0.001
431.58	0.001
431.78	0.001
431.99	0.001
432.19	0.001
432.40	0.001
432.60	0.001
432.80	0.001
433.01	0.001
433.21	0.001
433.42	0.001
433.62	0.001
433.83	0.001
434.03	0.001
434.23	0.001
434.44	0.001
434.64	0.001
434.85	0.001
435.05	0.001
435.26	0.001
435.46	0.001
435.66	0.001
435.87	0.001
436.07	0.001
436.28	0.001
436.48	0.001
436.69	0.001
436.89	0.001
437.09	0.001
437.30	0.001
437.50	0.001
437.71	0.001
437.91	0.001
438.11	0.001
438.32	0.001
438.52	0.001
438.73	0.000
438.93	0.001
439.13	0.001
439.34	0.001
439.54	0.001
439.75	0.001
439.95	0.001
440.15	0.001
440.36	0.001
440.56	0.001
440.77	0.001
440.97	0.001
441.17	0.001
441.38	0.001
441.58	0.001
441.79	0.001
441.99	0.001
442.19	0.001
442.40	0.001
442.60	0.001
442.81	0.001
443.01	0.000
443.21	0.000
443.42	0.001
443.62	0.001
443.82	0.001
444.03	0.001
444.23	0.001
444.44	0.001
444.64	0.001
444.84	0.001
445.05	0.001
445.25	0.001
445.45	0.001
445.66	0.000
445.86	0.000
446.06	0.000
446.27	0.000
446.47	0.001
446.68	0.000
446.88	0.001
447.08	0.000
447.29	0.000
447.49	0.000
447.69	0.000
447.90	0.000
448.10	0.000
448.30	0.000
448.51	0.000
448.71	0.000
448.91	0.000
449.12	0.000
449.32	0.000
449.52	0.001
449.73	0.001
449.93	0.001
450.14	0.001
450.34	0.000
450.54	0.000
450.75	0.000
450.95	0.001
451.15	0.001
451.36	0.001
451.56	0.001
451.76	0.001
451.97	0.000
452.17	0.000
452.37	0.000
452.58	0.000
452.78	0.000
452.98	0.000
453.19	0.000
453.39	0.000
453.59	0.000
453.79	0.000
454.00	0.000
454.20	0.001
454.40	0.000
454.61	0.001
454.81	0.001
455.01	0.001
455.22	0.001
455.42	0.000
455.62	0.001
455.83	0.001
456.03	0.001
456.23	0.001
456.44	0.001
456.64	0.001
456.84	0.001
457.04	0.001
457.25	0.001
457.45	0.001
457.65	0.001
457.86	0.001
458.06	0.001
458.26	0.001
458.47	0.001
458.67	0.001
458.87	0.001
459.07	0.001
459.28	0.000
459.48	0.000
459.68	0.000
459.89	0.000
460.09	0.000
460.29	0.000
460.49	0.000
460.70	0.000
460.90	0.000
461.10	0.000
461.31	0.000
461.51	0.001
461.71	0.001
461.91	0.001
462.12	0.001
462.32	0.001
462.52	0.001
462.72	0.001
