SpectraSuite Data File
++++++++++++++++++++++++++++++++++++
Date: Mon Jun 15 09:12:06 PDT 2015
User: introlabs
Dark Spectrum Present: Yes
Reference Spectrum Present: Yes
Number of Sampled Component Spectra: 1
Spectrometers: USB4H08886
Integration Time (usec): 44366 (USB4H08886)
Spectra Averaged: 20 (USB4H08886)
Boxcar Smoothing: 5 (USB4H08886)
Correct for Electrical Dark: Yes (USB4H08886)
Strobe/Lamp Enabled: No (USB4H08886)
Correct for Detector Non-linearity: Yes (USB4H08886)
Correct for Stray Light: Yes (USB4H08886)
Number of Pixels in Processed Spectrum: 3648
>>>>>Begin Processed Spectral Data<<<<<
178.14	-0.061
178.36	-0.061
178.57	-0.061
178.79	-0.000
179.01	-0.457
179.22	0.092
179.44	-0.093
179.65	-0.016
179.87	0.204
180.08	0.328
180.30	0.421
180.52	0.493
180.73	0.196
180.95	0.183
181.16	0.059
181.38	0.019
181.59	-0.001
181.81	-0.008
182.03	0.009
182.24	0.008
182.46	0.007
182.67	0.012
182.89	0.011
183.10	0.014
183.32	0.008
183.54	0.007
183.75	0.014
183.97	0.022
184.18	0.026
184.40	0.021
184.61	0.017
184.83	0.017
185.04	0.007
185.26	0.011
185.48	0.012
185.69	0.011
185.91	0.015
186.12	0.011
186.34	0.024
186.55	0.013
186.77	0.016
186.98	0.018
187.20	0.020
187.42	0.021
187.63	0.016
187.85	0.024
188.06	0.032
188.28	0.038
188.49	0.035
188.71	0.023
188.92	0.030
189.14	0.025
189.36	0.032
189.57	0.029
189.79	0.030
190.00	0.029
190.22	0.021
190.43	0.020
190.65	0.013
190.86	0.023
191.08	0.019
191.29	0.013
191.51	0.016
191.72	0.005
191.94	0.011
192.16	0.018
192.37	0.020
192.59	0.025
192.80	0.021
193.02	0.025
193.23	0.020
193.45	0.016
193.66	0.021
193.88	0.012
194.09	0.013
194.31	0.005
194.52	-0.001
194.74	0.000
194.95	-0.004
195.17	-0.001
195.38	-0.009
195.60	-0.017
195.81	-0.006
196.03	-0.009
196.25	0.004
196.46	0.002
196.68	0.003
196.89	0.007
197.11	0.006
197.32	0.005
197.54	-0.004
197.75	0.006
197.97	0.009
198.18	0.005
198.40	0.010
198.61	0.003
198.83	-0.005
199.04	0.003
199.26	-0.002
199.47	-0.007
199.69	0.001
199.90	0.017
200.12	0.008
200.33	0.008
200.55	0.002
200.76	-0.004
200.98	-0.002
201.19	0.002
201.41	-0.009
201.62	-0.001
201.84	0.007
202.05	0.008
202.27	-0.003
202.48	0.001
202.70	0.004
202.91	0.013
203.13	0.013
203.34	0.006
203.56	0.005
203.77	0.013
203.99	0.003
204.20	-0.009
204.42	-0.017
204.63	-0.011
204.85	-0.015
205.06	-0.023
205.28	-0.023
205.49	-0.019
205.71	-0.014
205.92	-0.008
206.14	-0.015
206.35	-0.008
206.56	0.006
206.78	0.004
206.99	0.009
207.21	0.011
207.42	0.019
207.64	0.016
207.85	0.016
208.07	0.020
208.28	0.015
208.50	0.022
208.71	0.019
208.93	0.013
209.14	0.020
209.36	0.017
209.57	0.023
209.79	0.021
210.00	0.026
210.22	0.024
210.43	0.014
210.64	0.021
210.86	0.018
211.07	0.015
211.29	0.017
211.50	0.015
211.72	0.008
211.93	0.001
212.15	0.004
212.36	-0.004
212.58	-0.002
212.79	0.008
213.01	-0.002
213.22	-0.003
213.43	-0.003
213.65	-0.004
213.86	-0.007
214.08	-0.004
214.29	0.003
214.51	-0.003
214.72	-0.004
214.94	-0.008
215.15	-0.006
215.36	0.001
215.58	-0.002
215.79	-0.002
216.01	0.001
216.22	0.005
216.44	0.000
216.65	-0.004
216.87	0.002
217.08	0.003
217.29	0.016
217.51	0.011
217.72	0.008
217.94	0.016
218.15	0.021
218.37	0.018
218.58	0.014
218.80	0.020
219.01	0.017
219.22	0.017
219.44	0.019
219.65	0.008
219.87	0.015
220.08	0.012
220.30	0.002
220.51	0.001
220.72	-0.001
220.94	-0.004
221.15	-0.004
221.37	-0.006
221.58	-0.008
221.79	-0.005
222.01	-0.012
222.22	-0.021
222.44	-0.019
222.65	-0.020
222.87	-0.024
223.08	-0.022
223.29	-0.020
223.51	-0.024
223.72	-0.021
223.94	-0.026
224.15	-0.029
224.36	-0.023
224.58	-0.026
224.79	-0.020
225.01	-0.018
225.22	-0.018
225.44	-0.021
225.65	-0.016
225.86	-0.013
226.08	-0.013
226.29	-0.011
226.51	-0.011
226.72	-0.007
226.93	-0.006
227.15	-0.013
227.36	-0.017
227.58	-0.017
227.79	-0.013
228.00	-0.019
228.22	-0.025
228.43	-0.028
228.65	-0.027
228.86	-0.030
229.07	-0.033
229.29	-0.029
229.50	-0.030
229.72	-0.029
229.93	-0.028
230.14	-0.030
230.36	-0.032
230.57	-0.031
230.78	-0.031
231.00	-0.034
231.21	-0.036
231.43	-0.036
231.64	-0.037
231.85	-0.035
232.07	-0.035
232.28	-0.038
232.50	-0.041
232.71	-0.041
232.92	-0.040
233.14	-0.040
233.35	-0.039
233.56	-0.039
233.78	-0.040
233.99	-0.041
234.21	-0.042
234.42	-0.040
234.63	-0.040
234.85	-0.038
235.06	-0.037
235.27	-0.037
235.49	-0.036
235.70	-0.037
235.91	-0.037
236.13	-0.035
236.34	-0.036
236.56	-0.038
236.77	-0.038
236.98	-0.038
237.20	-0.038
237.41	-0.037
237.62	-0.037
237.84	-0.038
238.05	-0.038
238.26	-0.038
238.48	-0.039
238.69	-0.037
238.91	-0.036
239.12	-0.036
239.33	-0.036
239.55	-0.035
239.76	-0.035
239.97	-0.034
240.19	-0.033
240.40	-0.032
240.61	-0.031
240.83	-0.029
241.04	-0.029
241.25	-0.028
241.47	-0.027
241.68	-0.025
241.89	-0.024
242.11	-0.024
242.32	-0.024
242.53	-0.024
242.75	-0.023
242.96	-0.022
243.17	-0.022
243.39	-0.021
243.60	-0.021
243.81	-0.021
244.03	-0.021
244.24	-0.021
244.45	-0.020
244.67	-0.019
244.88	-0.017
245.09	-0.017
245.31	-0.016
245.52	-0.016
245.73	-0.016
245.95	-0.015
246.16	-0.014
246.37	-0.014
246.59	-0.014
246.80	-0.014
247.01	-0.013
247.23	-0.013
247.44	-0.013
247.65	-0.014
247.87	-0.013
248.08	-0.013
248.29	-0.012
248.51	-0.012
248.72	-0.012
248.93	-0.012
249.15	-0.011
249.36	-0.012
249.57	-0.012
249.78	-0.012
250.00	-0.011
250.21	-0.011
250.42	-0.011
250.64	-0.011
250.85	-0.010
251.06	-0.010
251.28	-0.010
251.49	-0.010
251.70	-0.010
251.92	-0.009
252.13	-0.008
252.34	-0.008
252.55	-0.008
252.77	-0.008
252.98	-0.007
253.19	-0.007
253.41	-0.007
253.62	-0.007
253.83	-0.007
254.05	-0.007
254.26	-0.007
254.47	-0.007
254.68	-0.007
254.90	-0.007
255.11	-0.007
255.32	-0.006
255.54	-0.007
255.75	-0.007
255.96	-0.007
256.17	-0.007
256.39	-0.007
256.60	-0.007
256.81	-0.007
257.03	-0.007
257.24	-0.007
257.45	-0.007
257.66	-0.008
257.88	-0.007
258.09	-0.007
258.30	-0.007
258.51	-0.007
258.73	-0.007
258.94	-0.008
259.15	-0.007
259.37	-0.007
259.58	-0.008
259.79	-0.008
260.00	-0.008
260.22	-0.008
260.43	-0.008
260.64	-0.008
260.85	-0.008
261.07	-0.008
261.28	-0.008
261.49	-0.008
261.71	-0.009
261.92	-0.008
262.13	-0.009
262.34	-0.009
262.56	-0.009
262.77	-0.009
262.98	-0.009
263.19	-0.009
263.41	-0.009
263.62	-0.009
263.83	-0.010
264.04	-0.010
264.26	-0.010
264.47	-0.010
264.68	-0.010
264.89	-0.010
265.11	-0.011
265.32	-0.010
265.53	-0.011
265.74	-0.011
265.96	-0.011
266.17	-0.011
266.38	-0.011
266.59	-0.011
266.81	-0.011
267.02	-0.012
267.23	-0.012
267.44	-0.013
267.65	-0.013
267.87	-0.014
268.08	-0.014
268.29	-0.014
268.50	-0.014
268.72	-0.014
268.93	-0.014
269.14	-0.015
269.35	-0.015
269.57	-0.015
269.78	-0.015
269.99	-0.015
270.20	-0.015
270.41	-0.015
270.63	-0.015
270.84	-0.016
271.05	-0.016
271.26	-0.016
271.48	-0.016
271.69	-0.017
271.90	-0.017
272.11	-0.017
272.32	-0.017
272.54	-0.018
272.75	-0.018
272.96	-0.018
273.17	-0.018
273.39	-0.018
273.60	-0.018
273.81	-0.018
274.02	-0.018
274.23	-0.018
274.45	-0.018
274.66	-0.018
274.87	-0.019
275.08	-0.019
275.29	-0.019
275.51	-0.019
275.72	-0.019
275.93	-0.019
276.14	-0.019
276.35	-0.019
276.57	-0.019
276.78	-0.019
276.99	-0.019
277.20	-0.019
277.41	-0.018
277.63	-0.018
277.84	-0.018
278.05	-0.018
278.26	-0.018
278.47	-0.018
278.69	-0.018
278.90	-0.018
279.11	-0.017
279.32	-0.017
279.53	-0.017
279.74	-0.017
279.96	-0.017
280.17	-0.017
280.38	-0.016
280.59	-0.016
280.80	-0.016
281.02	-0.016
281.23	-0.015
281.44	-0.015
281.65	-0.015
281.86	-0.015
282.07	-0.015
282.29	-0.015
282.50	-0.015
282.71	-0.014
282.92	-0.014
283.13	-0.014
283.35	-0.014
283.56	-0.014
283.77	-0.013
283.98	-0.013
284.19	-0.013
284.40	-0.012
284.62	-0.012
284.83	-0.012
285.04	-0.011
285.25	-0.011
285.46	-0.010
285.67	-0.010
285.88	-0.009
286.10	-0.009
286.31	-0.008
286.52	-0.007
286.73	-0.007
286.94	-0.006
287.15	-0.005
287.37	-0.005
287.58	-0.004
287.79	-0.003
288.00	-0.003
288.21	-0.002
288.42	-0.002
288.63	-0.001
288.85	-0.001
289.06	-0.001
289.27	-0.000
289.48	0.000
289.69	0.001
289.90	0.001
290.11	0.001
290.33	0.002
290.54	0.002
290.75	0.003
290.96	0.003
291.17	0.004
291.38	0.004
291.59	0.004
291.81	0.004
292.02	0.004
292.23	0.005
292.44	0.005
292.65	0.005
292.86	0.005
293.07	0.006
293.28	0.006
293.50	0.006
293.71	0.006
293.92	0.006
294.13	0.007
294.34	0.007
294.55	0.007
294.76	0.007
294.97	0.007
295.19	0.007
295.40	0.007
295.61	0.007
295.82	0.008
296.03	0.007
296.24	0.008
296.45	0.008
296.66	0.008
296.87	0.007
297.09	0.007
297.30	0.007
297.51	0.008
297.72	0.008
297.93	0.008
298.14	0.008
298.35	0.008
298.56	0.008
298.77	0.008
298.99	0.008
299.20	0.008
299.41	0.009
299.62	0.008
299.83	0.008
300.04	0.009
300.25	0.009
300.46	0.009
300.67	0.009
300.88	0.009
301.10	0.009
301.31	0.009
301.52	0.009
301.73	0.009
301.94	0.009
302.15	0.009
302.36	0.009
302.57	0.009
302.78	0.009
302.99	0.009
303.20	0.009
303.41	0.009
303.63	0.009
303.84	0.009
304.05	0.009
304.26	0.009
304.47	0.009
304.68	0.009
304.89	0.009
305.10	0.010
305.31	0.010
305.52	0.010
305.73	0.009
305.94	0.009
306.15	0.009
306.37	0.010
306.58	0.010
306.79	0.010
307.00	0.010
307.21	0.010
307.42	0.010
307.63	0.010
307.84	0.010
308.05	0.010
308.26	0.010
308.47	0.010
308.68	0.010
308.89	0.010
309.10	0.010
309.31	0.010
309.52	0.010
309.73	0.010
309.95	0.010
310.16	0.010
310.37	0.010
310.58	0.010
310.79	0.010
311.00	0.010
311.21	0.011
311.42	0.011
311.63	0.011
311.84	0.011
312.05	0.011
312.26	0.011
312.47	0.011
312.68	0.011
312.89	0.011
313.10	0.011
313.31	0.011
313.52	0.011
313.73	0.011
313.94	0.011
314.15	0.011
314.36	0.011
314.57	0.011
314.78	0.011
314.99	0.011
315.21	0.011
315.42	0.011
315.63	0.011
315.84	0.011
316.05	0.011
316.26	0.011
316.47	0.011
316.68	0.011
316.89	0.011
317.10	0.011
317.31	0.011
317.52	0.011
317.73	0.012
317.94	0.011
318.15	0.011
318.36	0.012
318.57	0.012
318.78	0.012
318.99	0.012
319.20	0.012
319.41	0.012
319.62	0.012
319.83	0.012
320.04	0.012
320.25	0.012
320.46	0.012
320.67	0.012
320.88	0.012
321.09	0.012
321.30	0.012
321.51	0.011
321.72	0.011
321.93	0.011
322.14	0.011
322.35	0.011
322.56	0.012
322.77	0.012
322.98	0.012
323.19	0.012
323.40	0.012
323.61	0.012
323.82	0.012
324.03	0.012
324.24	0.012
324.45	0.012
324.66	0.012
324.87	0.012
325.08	0.012
325.29	0.012
325.50	0.012
325.71	0.012
325.92	0.012
326.13	0.012
326.34	0.012
326.55	0.012
326.76	0.012
326.97	0.012
327.18	0.012
327.39	0.012
327.60	0.012
327.80	0.012
328.01	0.012
328.22	0.012
328.43	0.012
328.64	0.012
328.85	0.012
329.06	0.012
329.27	0.012
329.48	0.012
329.69	0.012
329.90	0.012
330.11	0.012
330.32	0.012
330.53	0.012
330.74	0.011
330.95	0.011
331.16	0.011
331.37	0.012
331.58	0.012
331.79	0.012
332.00	0.011
332.21	0.011
332.42	0.011
332.63	0.011
332.83	0.012
333.04	0.011
333.25	0.011
333.46	0.011
333.67	0.011
333.88	0.011
334.09	0.011
334.30	0.011
334.51	0.011
334.72	0.011
334.93	0.011
335.14	0.011
335.35	0.011
335.56	0.011
335.77	0.011
335.98	0.011
336.18	0.011
336.39	0.011
336.60	0.011
336.81	0.010
337.02	0.010
337.23	0.010
337.44	0.010
337.65	0.010
337.86	0.010
338.07	0.010
338.28	0.010
338.49	0.010
338.70	0.010
338.91	0.010
339.11	0.010
339.32	0.010
339.53	0.010
339.74	0.010
339.95	0.009
340.16	0.009
340.37	0.009
340.58	0.009
340.79	0.009
341.00	0.009
341.21	0.009
341.41	0.009
341.62	0.009
341.83	0.009
342.04	0.009
342.25	0.009
342.46	0.009
342.67	0.009
342.88	0.009
343.09	0.009
343.30	0.009
343.50	0.008
343.71	0.008
343.92	0.009
344.13	0.008
344.34	0.008
344.55	0.008
344.76	0.008
344.97	0.008
345.18	0.008
345.38	0.008
345.59	0.008
345.80	0.008
346.01	0.008
346.22	0.008
346.43	0.008
346.64	0.008
346.85	0.007
347.06	0.007
347.26	0.007
347.47	0.007
347.68	0.007
347.89	0.007
348.10	0.007
348.31	0.007
348.52	0.007
348.73	0.007
348.93	0.006
349.14	0.006
349.35	0.006
349.56	0.006
349.77	0.006
349.98	0.006
350.19	0.006
350.39	0.006
350.60	0.006
350.81	0.006
351.02	0.006
351.23	0.006
351.44	0.006
351.65	0.006
351.86	0.006
352.06	0.006
352.27	0.006
352.48	0.006
352.69	0.006
352.90	0.006
353.11	0.006
353.31	0.006
353.52	0.006
353.73	0.006
353.94	0.006
354.15	0.006
354.36	0.006
354.57	0.006
354.77	0.006
354.98	0.006
355.19	0.006
355.40	0.006
355.61	0.005
355.82	0.005
356.02	0.006
356.23	0.006
356.44	0.006
356.65	0.006
356.86	0.006
357.07	0.005
357.27	0.006
357.48	0.005
357.69	0.005
357.90	0.005
358.11	0.005
358.32	0.005
358.52	0.005
358.73	0.005
358.94	0.005
359.15	0.005
359.36	0.005
359.56	0.005
359.77	0.005
359.98	0.005
360.19	0.005
360.40	0.005
360.61	0.005
360.81	0.005
361.02	0.005
361.23	0.005
361.44	0.005
361.65	0.005
361.85	0.005
362.06	0.005
362.27	0.005
362.48	0.005
362.69	0.005
362.89	0.005
363.10	0.005
363.31	0.005
363.52	0.005
363.73	0.005
363.93	0.005
364.14	0.005
364.35	0.005
364.56	0.005
364.77	0.005
364.97	0.005
365.18	0.005
365.39	0.004
365.60	0.004
365.81	0.004
366.01	0.004
366.22	0.004
366.43	0.004
366.64	0.004
366.84	0.004
367.05	0.004
367.26	0.004
367.47	0.004
367.68	0.005
367.88	0.005
368.09	0.005
368.30	0.005
368.51	0.005
368.71	0.005
368.92	0.005
369.13	0.005
369.34	0.005
369.55	0.005
369.75	0.005
369.96	0.005
370.17	0.005
370.38	0.005
370.58	0.004
370.79	0.004
371.00	0.004
371.21	0.004
371.41	0.004
371.62	0.004
371.83	0.004
372.04	0.004
372.24	0.004
372.45	0.004
372.66	0.004
372.87	0.004
373.07	0.004
373.28	0.004
373.49	0.004
373.70	0.004
373.90	0.004
374.11	0.004
374.32	0.004
374.53	0.004
374.73	0.004
374.94	0.004
375.15	0.004
375.36	0.004
375.56	0.004
375.77	0.004
375.98	0.004
376.19	0.004
376.39	0.004
376.60	0.004
376.81	0.004
377.02	0.004
377.22	0.004
377.43	0.004
377.64	0.004
377.84	0.004
378.05	0.004
378.26	0.004
378.47	0.004
378.67	0.004
378.88	0.004
379.09	0.004
379.30	0.004
379.50	0.004
379.71	0.004
379.92	0.004
380.12	0.004
380.33	0.003
380.54	0.004
380.75	0.004
380.95	0.004
381.16	0.003
381.37	0.003
381.57	0.003
381.78	0.003
381.99	0.003
382.20	0.003
382.40	0.003
382.61	0.004
382.82	0.003
383.02	0.003
383.23	0.003
383.44	0.003
383.64	0.003
383.85	0.003
384.06	0.003
384.27	0.003
384.47	0.003
384.68	0.003
384.89	0.003
385.09	0.003
385.30	0.003
385.51	0.003
385.71	0.003
385.92	0.003
386.13	0.003
386.33	0.003
386.54	0.003
386.75	0.003
386.95	0.003
387.16	0.003
387.37	0.003
387.58	0.003
387.78	0.003
387.99	0.003
388.20	0.003
388.40	0.003
388.61	0.003
388.82	0.003
389.02	0.003
389.23	0.003
389.44	0.003
389.64	0.003
389.85	0.003
390.06	0.003
390.26	0.003
390.47	0.003
390.68	0.003
390.88	0.003
391.09	0.003
391.30	0.003
391.50	0.003
391.71	0.003
391.92	0.003
392.12	0.003
392.33	0.003
392.53	0.003
392.74	0.003
392.95	0.003
393.15	0.003
393.36	0.003
393.57	0.003
393.77	0.003
393.98	0.003
394.19	0.003
394.39	0.003
394.60	0.003
394.81	0.003
395.01	0.003
395.22	0.003
395.43	0.003
395.63	0.003
395.84	0.003
396.04	0.003
396.25	0.003
396.46	0.002
396.66	0.002
396.87	0.002
397.08	0.002
397.28	0.002
397.49	0.002
397.69	0.002
397.90	0.003
398.11	0.003
398.31	0.002
398.52	0.003
398.73	0.003
398.93	0.002
399.14	0.002
399.34	0.002
399.55	0.002
399.76	0.002
399.96	0.002
400.17	0.002
400.37	0.002
400.58	0.002
400.79	0.002
400.99	0.002
401.20	0.002
401.41	0.002
401.61	0.002
401.82	0.002
402.02	0.003
402.23	0.002
402.44	0.002
402.64	0.002
402.85	0.002
403.05	0.002
403.26	0.002
403.47	0.002
403.67	0.002
403.88	0.002
404.08	0.002
404.29	0.002
404.50	0.002
404.70	0.002
404.91	0.002
405.11	0.002
405.32	0.002
405.52	0.002
405.73	0.002
405.94	0.002
406.14	0.002
406.35	0.002
406.55	0.002
406.76	0.002
406.97	0.002
407.17	0.002
407.38	0.002
407.58	0.002
407.79	0.002
407.99	0.002
408.20	0.002
408.41	0.002
408.61	0.002
408.82	0.002
409.02	0.002
409.23	0.002
409.43	0.002
409.64	0.002
409.84	0.002
410.05	0.002
410.26	0.002
410.46	0.002
410.67	0.002
410.87	0.002
411.08	0.002
411.28	0.002
411.49	0.002
411.69	0.001
411.90	0.001
412.11	0.001
412.31	0.001
412.52	0.002
412.72	0.001
412.93	0.002
413.13	0.001
413.34	0.001
413.54	0.001
413.75	0.001
413.95	0.002
414.16	0.001
414.37	0.001
414.57	0.001
414.78	0.002
414.98	0.002
415.19	0.002
415.39	0.002
415.60	0.002
415.80	0.002
416.01	0.001
416.21	0.001
416.42	0.001
416.62	0.001
416.83	0.001
417.03	0.001
417.24	0.001
417.44	0.001
417.65	0.001
417.86	0.001
418.06	0.001
418.27	0.001
418.47	0.001
418.68	0.001
418.88	0.000
419.09	0.000
419.29	0.000
419.50	0.000
419.70	0.000
419.91	0.001
420.11	0.001
420.32	0.001
420.52	0.001
420.73	0.001
420.93	0.001
421.14	0.001
421.34	0.001
421.55	0.001
421.75	0.001
421.96	0.001
422.16	0.001
422.37	0.001
422.57	0.001
422.78	0.001
422.98	0.001
423.19	0.001
423.39	0.001
423.60	0.001
423.80	0.001
424.01	0.001
424.21	0.001
424.42	0.001
424.62	0.001
424.83	0.002
425.03	0.001
425.23	0.001
425.44	0.001
425.64	0.001
425.85	0.001
426.05	0.001
426.26	0.001
426.46	0.001
426.67	0.001
426.87	0.001
427.08	0.001
427.28	0.001
427.49	0.001
427.69	0.001
427.90	0.001
428.10	0.001
428.31	0.001
428.51	0.001
428.71	0.001
428.92	0.001
429.12	0.001
429.33	0.000
429.53	0.001
429.74	0.001
429.94	0.001
430.15	0.001
430.35	0.001
430.56	0.001
430.76	0.001
430.96	0.001
431.17	0.001
431.37	0.001
431.58	0.001
431.78	0.001
431.99	0.001
432.19	0.001
432.40	0.001
432.60	0.001
432.80	0.001
433.01	0.001
433.21	0.001
433.42	0.001
433.62	0.001
433.83	0.001
434.03	0.001
434.23	0.001
434.44	0.001
434.64	0.001
434.85	0.001
435.05	0.001
435.26	0.000
435.46	0.000
435.66	0.000
435.87	0.000
436.07	0.000
436.28	0.000
436.48	0.000
436.69	0.000
436.89	0.000
437.09	0.000
437.30	0.000
437.50	0.001
437.71	0.001
437.91	0.001
438.11	0.001
438.32	0.001
438.52	0.001
438.73	0.001
438.93	0.001
439.13	0.001
439.34	0.001
439.54	0.001
439.75	0.001
439.95	0.000
440.15	0.000
440.36	0.000
440.56	0.000
440.77	0.000
440.97	0.001
441.17	0.001
441.38	0.001
441.58	0.000
441.79	0.000
441.99	0.001
442.19	0.000
442.40	0.000
442.60	0.000
442.81	0.000
443.01	0.000
443.21	0.000
443.42	0.000
443.62	0.000
443.82	0.000
444.03	0.000
444.23	0.000
444.44	0.000
444.64	0.000
444.84	0.000
445.05	0.000
445.25	0.000
445.45	0.000
445.66	0.000
445.86	0.000
446.06	0.000
446.27	0.001
446.47	0.001
446.68	0.000
446.88	0.000
447.08	0.000
447.29	0.000
447.49	0.000
447.69	0.000
447.90	0.001
448.10	0.001
448.30	0.001
448.51	0.001
448.71	0.000
448.91	0.001
449.12	0.000
449.32	0.001
449.52	0.001
449.73	0.001
449.93	0.001
450.14	0.000
450.34	0.000
450.54	0.000
450.75	0.000
450.95	0.000
451.15	0.001
451.36	0.000
451.56	0.000
451.76	0.000
451.97	0.000
452.17	0.000
452.37	0.000
452.58	0.000
452.78	0.000
452.98	0.000
453.19	0.000
453.39	0.000
453.59	0.000
453.79	0.000
454.00	0.000
454.20	0.000
454.40	0.000
454.61	0.000
454.81	0.000
455.01	0.000
455.22	0.000
455.42	0.000
455.62	0.000
455.83	0.000
456.03	0.000
456.23	0.000
456.44	0.000
456.64	0.000
456.84	0.000
457.04	0.000
457.25	0.000
457.45	0.000
457.65	0.000
457.86	0.000
458.06	0.000
458.26	0.000
458.47	0.000
458.67	-0.000
458.87	-0.000
459.07	-0.000
459.28	-0.000
459.48	0.000
459.68	0.000
459.89	0.000
460.09	0.000
460.29	0.000
460.49	0.000
460.70	0.000
460.90	0.000
461.10	0.001
461.31	0.001
461.51	0.001
461.71	0.001
461.91	0.001
462.12	0.001
462.32	0.001
