SpectraSuite Data File
++++++++++++++++++++++++++++++++++++
Date: Mon Jun 15 09:18:17 PDT 2015
User: introlabs
Dark Spectrum Present: Yes
Reference Spectrum Present: Yes
Number of Sampled Component Spectra: 1
Spectrometers: USB4H08886
Integration Time (usec): 44366 (USB4H08886)
Spectra Averaged: 20 (USB4H08886)
Boxcar Smoothing: 5 (USB4H08886)
Correct for Electrical Dark: Yes (USB4H08886)
Strobe/Lamp Enabled: No (USB4H08886)
Correct for Detector Non-linearity: Yes (USB4H08886)
Correct for Stray Light: Yes (USB4H08886)
Number of Pixels in Processed Spectrum: 3648
>>>>>Begin Processed Spectral Data<<<<<
178.14	-0.000
178.36	-0.000
178.57	-0.000
178.79	0.382
179.01	-0.099
179.22	-0.000
179.44	-0.000
179.65	-0.281
179.87	-0.017
180.08	-0.040
180.30	-0.090
180.52	-0.272
180.73	-0.275
180.95	-0.109
181.16	-0.059
181.38	-0.047
181.59	-0.033
181.81	-0.032
182.03	-0.011
182.24	0.002
182.46	0.015
182.67	0.008
182.89	0.013
183.10	0.012
183.32	0.011
183.54	0.007
183.75	0.011
183.97	0.010
184.18	0.002
184.40	-0.011
184.61	-0.009
184.83	-0.006
185.04	-0.004
185.26	-0.005
185.48	-0.006
185.69	-0.009
185.91	-0.005
186.12	-0.008
186.34	-0.003
186.55	-0.006
186.77	-0.002
186.98	-0.012
187.20	-0.016
187.42	-0.007
187.63	-0.005
187.85	0.001
188.06	0.006
188.28	0.012
188.49	0.015
188.71	0.013
188.92	0.024
189.14	0.022
189.36	0.027
189.57	0.023
189.79	0.014
190.00	0.005
190.22	-0.004
190.43	-0.003
190.65	-0.012
190.86	-0.014
191.08	-0.014
191.29	-0.020
191.51	-0.015
191.72	-0.015
191.94	-0.010
192.16	-0.002
192.37	0.004
192.59	0.011
192.80	0.010
193.02	0.013
193.23	0.022
193.45	0.016
193.66	0.014
193.88	0.008
194.09	0.003
194.31	-0.000
194.52	-0.002
194.74	-0.001
194.95	-0.004
195.17	-0.004
195.38	-0.007
195.60	-0.017
195.81	-0.013
196.03	-0.014
196.25	-0.007
196.46	-0.007
196.68	-0.006
196.89	-0.007
197.11	-0.006
197.32	-0.013
197.54	-0.015
197.75	-0.002
197.97	0.001
198.18	-0.004
198.40	0.003
198.61	-0.005
198.83	-0.006
199.04	-0.004
199.26	-0.008
199.47	-0.012
199.69	0.001
199.90	0.008
200.12	-0.002
200.33	-0.001
200.55	0.006
200.76	-0.001
200.98	0.000
201.19	0.001
201.41	-0.002
201.62	-0.004
201.84	0.001
202.05	-0.002
202.27	-0.007
202.48	-0.010
202.70	-0.006
202.91	-0.008
203.13	-0.009
203.34	-0.016
203.56	-0.013
203.77	-0.012
203.99	-0.008
204.20	-0.020
204.42	-0.021
204.63	-0.015
204.85	-0.017
205.06	-0.023
205.28	-0.020
205.49	-0.015
205.71	-0.000
205.92	0.003
206.14	0.002
206.35	0.010
206.56	0.020
206.78	0.018
206.99	0.015
207.21	0.021
207.42	0.027
207.64	0.026
207.85	0.025
208.07	0.027
208.28	0.026
208.50	0.026
208.71	0.023
208.93	0.025
209.14	0.029
209.36	0.026
209.57	0.027
209.79	0.023
210.00	0.021
210.22	0.025
210.43	0.021
210.64	0.017
210.86	0.012
211.07	0.008
211.29	0.004
211.50	-0.000
211.72	-0.003
211.93	-0.005
212.15	-0.004
212.36	-0.011
212.58	-0.016
212.79	-0.017
213.01	-0.022
213.22	-0.019
213.43	-0.014
213.65	-0.015
213.86	-0.012
214.08	-0.005
214.29	-0.007
214.51	-0.016
214.72	-0.013
214.94	-0.014
215.15	-0.012
215.36	-0.008
215.58	-0.011
215.79	-0.019
216.01	-0.013
216.22	-0.013
216.44	-0.021
216.65	-0.025
216.87	-0.017
217.08	-0.020
217.29	-0.013
217.51	-0.013
217.72	-0.017
217.94	-0.010
218.15	-0.004
218.37	-0.012
218.58	-0.018
218.80	-0.008
219.01	-0.007
219.22	-0.009
219.44	-0.005
219.65	-0.010
219.87	-0.013
220.08	-0.009
220.30	-0.018
220.51	-0.023
220.72	-0.023
220.94	-0.025
221.15	-0.031
221.37	-0.033
221.58	-0.028
221.79	-0.026
222.01	-0.031
222.22	-0.034
222.44	-0.032
222.65	-0.031
222.87	-0.030
223.08	-0.031
223.29	-0.029
223.51	-0.028
223.72	-0.029
223.94	-0.038
224.15	-0.036
224.36	-0.030
224.58	-0.033
224.79	-0.033
225.01	-0.036
225.22	-0.034
225.44	-0.032
225.65	-0.028
225.86	-0.028
226.08	-0.026
226.29	-0.025
226.51	-0.030
226.72	-0.034
226.93	-0.029
227.15	-0.037
227.36	-0.039
227.58	-0.042
227.79	-0.039
228.00	-0.043
228.22	-0.047
228.43	-0.050
228.65	-0.047
228.86	-0.049
229.07	-0.051
229.29	-0.052
229.50	-0.053
229.72	-0.050
229.93	-0.051
230.14	-0.055
230.36	-0.056
230.57	-0.058
230.78	-0.058
231.00	-0.065
231.21	-0.067
231.43	-0.065
231.64	-0.068
231.85	-0.065
232.07	-0.067
232.28	-0.066
232.50	-0.068
232.71	-0.071
232.92	-0.071
233.14	-0.071
233.35	-0.068
233.56	-0.069
233.78	-0.073
233.99	-0.074
234.21	-0.075
234.42	-0.075
234.63	-0.076
234.85	-0.076
235.06	-0.076
235.27	-0.075
235.49	-0.075
235.70	-0.078
235.91	-0.078
236.13	-0.077
236.34	-0.077
236.56	-0.078
236.77	-0.078
236.98	-0.077
237.20	-0.077
237.41	-0.077
237.62	-0.076
237.84	-0.076
238.05	-0.075
238.26	-0.075
238.48	-0.075
238.69	-0.073
238.91	-0.072
239.12	-0.073
239.33	-0.073
239.55	-0.072
239.76	-0.071
239.97	-0.070
240.19	-0.070
240.40	-0.069
240.61	-0.068
240.83	-0.067
241.04	-0.067
241.25	-0.067
241.47	-0.065
241.68	-0.063
241.89	-0.063
242.11	-0.062
242.32	-0.062
242.53	-0.062
242.75	-0.060
242.96	-0.060
243.17	-0.059
243.39	-0.059
243.60	-0.058
243.81	-0.058
244.03	-0.058
244.24	-0.057
244.45	-0.056
244.67	-0.056
244.88	-0.054
245.09	-0.054
245.31	-0.053
245.52	-0.053
245.73	-0.052
245.95	-0.051
246.16	-0.051
246.37	-0.050
246.59	-0.049
246.80	-0.049
247.01	-0.048
247.23	-0.048
247.44	-0.048
247.65	-0.048
247.87	-0.047
248.08	-0.047
248.29	-0.047
248.51	-0.047
248.72	-0.046
248.93	-0.046
249.15	-0.046
249.36	-0.045
249.57	-0.045
249.78	-0.045
250.00	-0.045
250.21	-0.045
250.42	-0.044
250.64	-0.043
250.85	-0.043
251.06	-0.043
251.28	-0.042
251.49	-0.042
251.70	-0.042
251.92	-0.041
252.13	-0.041
252.34	-0.040
252.55	-0.040
252.77	-0.040
252.98	-0.040
253.19	-0.040
253.41	-0.039
253.62	-0.040
253.83	-0.039
254.05	-0.039
254.26	-0.039
254.47	-0.039
254.68	-0.039
254.90	-0.038
255.11	-0.038
255.32	-0.038
255.54	-0.038
255.75	-0.038
255.96	-0.037
256.17	-0.037
256.39	-0.037
256.60	-0.037
256.81	-0.037
257.03	-0.036
257.24	-0.036
257.45	-0.036
257.66	-0.037
257.88	-0.037
258.09	-0.037
258.30	-0.037
258.51	-0.037
258.73	-0.037
258.94	-0.037
259.15	-0.037
259.37	-0.037
259.58	-0.037
259.79	-0.037
260.00	-0.036
260.22	-0.036
260.43	-0.036
260.64	-0.036
260.85	-0.036
261.07	-0.037
261.28	-0.037
261.49	-0.037
261.71	-0.037
261.92	-0.037
262.13	-0.037
262.34	-0.037
262.56	-0.037
262.77	-0.037
262.98	-0.037
263.19	-0.037
263.41	-0.038
263.62	-0.038
263.83	-0.038
264.04	-0.038
264.26	-0.038
264.47	-0.039
264.68	-0.039
264.89	-0.039
265.11	-0.039
265.32	-0.039
265.53	-0.039
265.74	-0.040
265.96	-0.040
266.17	-0.040
266.38	-0.040
266.59	-0.040
266.81	-0.040
267.02	-0.040
267.23	-0.041
267.44	-0.041
267.65	-0.042
267.87	-0.042
268.08	-0.042
268.29	-0.042
268.50	-0.042
268.72	-0.043
268.93	-0.043
269.14	-0.043
269.35	-0.043
269.57	-0.043
269.78	-0.043
269.99	-0.043
270.20	-0.043
270.41	-0.043
270.63	-0.043
270.84	-0.044
271.05	-0.044
271.26	-0.044
271.48	-0.045
271.69	-0.045
271.90	-0.045
272.11	-0.045
272.32	-0.046
272.54	-0.046
272.75	-0.046
272.96	-0.046
273.17	-0.046
273.39	-0.046
273.60	-0.047
273.81	-0.047
274.02	-0.047
274.23	-0.047
274.45	-0.047
274.66	-0.047
274.87	-0.047
275.08	-0.047
275.29	-0.047
275.51	-0.047
275.72	-0.047
275.93	-0.047
276.14	-0.047
276.35	-0.047
276.57	-0.047
276.78	-0.047
276.99	-0.047
277.20	-0.047
277.41	-0.047
277.63	-0.047
277.84	-0.046
278.05	-0.047
278.26	-0.046
278.47	-0.046
278.69	-0.046
278.90	-0.046
279.11	-0.046
279.32	-0.045
279.53	-0.045
279.74	-0.045
279.96	-0.045
280.17	-0.045
280.38	-0.044
280.59	-0.044
280.80	-0.044
281.02	-0.044
281.23	-0.043
281.44	-0.043
281.65	-0.043
281.86	-0.043
282.07	-0.043
282.29	-0.042
282.50	-0.042
282.71	-0.042
282.92	-0.042
283.13	-0.041
283.35	-0.041
283.56	-0.041
283.77	-0.041
283.98	-0.040
284.19	-0.040
284.40	-0.040
284.62	-0.039
284.83	-0.039
285.04	-0.039
285.25	-0.038
285.46	-0.037
285.67	-0.037
285.88	-0.036
286.10	-0.036
286.31	-0.035
286.52	-0.034
286.73	-0.033
286.94	-0.033
287.15	-0.032
287.37	-0.031
287.58	-0.030
287.79	-0.030
288.00	-0.029
288.21	-0.028
288.42	-0.028
288.63	-0.027
288.85	-0.027
289.06	-0.026
289.27	-0.026
289.48	-0.025
289.69	-0.025
289.90	-0.024
290.11	-0.023
290.33	-0.023
290.54	-0.022
290.75	-0.022
290.96	-0.022
291.17	-0.021
291.38	-0.021
291.59	-0.020
291.81	-0.020
292.02	-0.020
292.23	-0.019
292.44	-0.019
292.65	-0.019
292.86	-0.018
293.07	-0.018
293.28	-0.018
293.50	-0.018
293.71	-0.017
293.92	-0.017
294.13	-0.017
294.34	-0.017
294.55	-0.016
294.76	-0.016
294.97	-0.016
295.19	-0.016
295.40	-0.016
295.61	-0.016
295.82	-0.016
296.03	-0.016
296.24	-0.016
296.45	-0.016
296.66	-0.016
296.87	-0.016
297.09	-0.016
297.30	-0.015
297.51	-0.015
297.72	-0.015
297.93	-0.015
298.14	-0.015
298.35	-0.014
298.56	-0.014
298.77	-0.014
298.99	-0.014
299.20	-0.014
299.41	-0.014
299.62	-0.014
299.83	-0.014
300.04	-0.014
300.25	-0.014
300.46	-0.014
300.67	-0.014
300.88	-0.013
301.10	-0.013
301.31	-0.013
301.52	-0.013
301.73	-0.013
301.94	-0.013
302.15	-0.013
302.36	-0.013
302.57	-0.013
302.78	-0.013
302.99	-0.013
303.20	-0.013
303.41	-0.013
303.63	-0.013
303.84	-0.013
304.05	-0.013
304.26	-0.013
304.47	-0.013
304.68	-0.013
304.89	-0.012
305.10	-0.012
305.31	-0.012
305.52	-0.012
305.73	-0.012
305.94	-0.012
306.15	-0.012
306.37	-0.012
306.58	-0.012
306.79	-0.012
307.00	-0.012
307.21	-0.012
307.42	-0.012
307.63	-0.012
307.84	-0.011
308.05	-0.011
308.26	-0.012
308.47	-0.011
308.68	-0.011
308.89	-0.011
309.10	-0.011
309.31	-0.011
309.52	-0.011
309.73	-0.011
309.95	-0.011
310.16	-0.011
310.37	-0.011
310.58	-0.011
310.79	-0.011
311.00	-0.011
311.21	-0.011
311.42	-0.011
311.63	-0.011
311.84	-0.011
312.05	-0.011
312.26	-0.011
312.47	-0.011
312.68	-0.010
312.89	-0.011
313.10	-0.010
313.31	-0.010
313.52	-0.010
313.73	-0.010
313.94	-0.010
314.15	-0.010
314.36	-0.010
314.57	-0.010
314.78	-0.010
314.99	-0.010
315.21	-0.010
315.42	-0.010
315.63	-0.009
315.84	-0.009
316.05	-0.009
316.26	-0.009
316.47	-0.009
316.68	-0.009
316.89	-0.009
317.10	-0.009
317.31	-0.009
317.52	-0.009
317.73	-0.009
317.94	-0.009
318.15	-0.009
318.36	-0.009
318.57	-0.009
318.78	-0.009
318.99	-0.009
319.20	-0.009
319.41	-0.009
319.62	-0.009
319.83	-0.009
320.04	-0.009
320.25	-0.009
320.46	-0.009
320.67	-0.009
320.88	-0.009
321.09	-0.009
321.30	-0.009
321.51	-0.009
321.72	-0.009
321.93	-0.009
322.14	-0.009
322.35	-0.009
322.56	-0.009
322.77	-0.008
322.98	-0.008
323.19	-0.008
323.40	-0.008
323.61	-0.008
323.82	-0.008
324.03	-0.008
324.24	-0.008
324.45	-0.008
324.66	-0.008
324.87	-0.008
325.08	-0.008
325.29	-0.008
325.50	-0.008
325.71	-0.008
325.92	-0.008
326.13	-0.008
326.34	-0.008
326.55	-0.008
326.76	-0.008
326.97	-0.008
327.18	-0.008
327.39	-0.007
327.60	-0.008
327.80	-0.007
328.01	-0.008
328.22	-0.008
328.43	-0.008
328.64	-0.007
328.85	-0.008
329.06	-0.008
329.27	-0.008
329.48	-0.008
329.69	-0.008
329.90	-0.008
330.11	-0.007
330.32	-0.007
330.53	-0.007
330.74	-0.007
330.95	-0.007
331.16	-0.007
331.37	-0.007
331.58	-0.007
331.79	-0.007
332.00	-0.007
332.21	-0.007
332.42	-0.007
332.63	-0.007
332.83	-0.007
333.04	-0.007
333.25	-0.007
333.46	-0.007
333.67	-0.007
333.88	-0.007
334.09	-0.007
334.30	-0.007
334.51	-0.008
334.72	-0.008
334.93	-0.008
335.14	-0.008
335.35	-0.008
335.56	-0.008
335.77	-0.008
335.98	-0.007
336.18	-0.008
336.39	-0.007
336.60	-0.007
336.81	-0.007
337.02	-0.007
337.23	-0.007
337.44	-0.007
337.65	-0.007
337.86	-0.007
338.07	-0.007
338.28	-0.007
338.49	-0.007
338.70	-0.007
338.91	-0.007
339.11	-0.007
339.32	-0.007
339.53	-0.007
339.74	-0.008
339.95	-0.008
340.16	-0.008
340.37	-0.008
340.58	-0.008
340.79	-0.008
341.00	-0.008
341.21	-0.008
341.41	-0.008
341.62	-0.008
341.83	-0.008
342.04	-0.008
342.25	-0.008
342.46	-0.008
342.67	-0.008
342.88	-0.008
343.09	-0.008
343.30	-0.008
343.50	-0.008
343.71	-0.008
343.92	-0.008
344.13	-0.008
344.34	-0.008
344.55	-0.008
344.76	-0.008
344.97	-0.008
345.18	-0.008
345.38	-0.008
345.59	-0.008
345.80	-0.008
346.01	-0.008
346.22	-0.008
346.43	-0.008
346.64	-0.008
346.85	-0.008
347.06	-0.008
347.26	-0.008
347.47	-0.008
347.68	-0.008
347.89	-0.008
348.10	-0.008
348.31	-0.008
348.52	-0.008
348.73	-0.008
348.93	-0.008
349.14	-0.008
349.35	-0.008
349.56	-0.008
349.77	-0.008
349.98	-0.008
350.19	-0.008
350.39	-0.008
350.60	-0.008
350.81	-0.008
351.02	-0.008
351.23	-0.008
351.44	-0.008
351.65	-0.008
351.86	-0.008
352.06	-0.008
352.27	-0.008
352.48	-0.008
352.69	-0.008
352.90	-0.008
353.11	-0.008
353.31	-0.008
353.52	-0.008
353.73	-0.008
353.94	-0.008
354.15	-0.008
354.36	-0.008
354.57	-0.008
354.77	-0.008
354.98	-0.008
355.19	-0.008
355.40	-0.008
355.61	-0.008
355.82	-0.008
356.02	-0.008
356.23	-0.007
356.44	-0.007
356.65	-0.007
356.86	-0.007
357.07	-0.008
357.27	-0.007
357.48	-0.007
357.69	-0.008
357.90	-0.008
358.11	-0.008
358.32	-0.008
358.52	-0.008
358.73	-0.008
358.94	-0.008
359.15	-0.008
359.36	-0.008
359.56	-0.008
359.77	-0.008
359.98	-0.008
360.19	-0.008
360.40	-0.008
360.61	-0.008
360.81	-0.008
361.02	-0.008
361.23	-0.008
361.44	-0.008
361.65	-0.008
361.85	-0.008
362.06	-0.008
362.27	-0.008
362.48	-0.008
362.69	-0.008
362.89	-0.008
363.10	-0.008
363.31	-0.008
363.52	-0.008
363.73	-0.008
363.93	-0.008
364.14	-0.008
364.35	-0.008
364.56	-0.008
364.77	-0.008
364.97	-0.008
365.18	-0.008
365.39	-0.008
365.60	-0.008
365.81	-0.008
366.01	-0.008
366.22	-0.007
366.43	-0.007
366.64	-0.007
366.84	-0.007
367.05	-0.007
367.26	-0.007
367.47	-0.007
367.68	-0.007
367.88	-0.007
368.09	-0.007
368.30	-0.007
368.51	-0.007
368.71	-0.007
368.92	-0.007
369.13	-0.007
369.34	-0.007
369.55	-0.007
369.75	-0.007
369.96	-0.007
370.17	-0.007
370.38	-0.007
370.58	-0.007
370.79	-0.007
371.00	-0.007
371.21	-0.007
371.41	-0.007
371.62	-0.007
371.83	-0.007
372.04	-0.007
372.24	-0.007
372.45	-0.007
372.66	-0.007
372.87	-0.007
373.07	-0.007
373.28	-0.007
373.49	-0.007
373.70	-0.007
373.90	-0.007
374.11	-0.007
374.32	-0.007
374.53	-0.007
374.73	-0.007
374.94	-0.007
375.15	-0.007
375.36	-0.007
375.56	-0.007
375.77	-0.007
375.98	-0.007
376.19	-0.007
376.39	-0.007
376.60	-0.007
376.81	-0.007
377.02	-0.007
377.22	-0.007
377.43	-0.007
377.64	-0.007
377.84	-0.007
378.05	-0.007
378.26	-0.007
378.47	-0.007
378.67	-0.007
378.88	-0.007
379.09	-0.007
379.30	-0.007
379.50	-0.007
379.71	-0.007
379.92	-0.007
380.12	-0.007
380.33	-0.007
380.54	-0.007
380.75	-0.007
380.95	-0.007
381.16	-0.007
381.37	-0.007
381.57	-0.007
381.78	-0.007
381.99	-0.007
382.20	-0.007
382.40	-0.007
382.61	-0.007
382.82	-0.007
383.02	-0.007
383.23	-0.007
383.44	-0.007
383.64	-0.007
383.85	-0.007
384.06	-0.007
384.27	-0.007
384.47	-0.007
384.68	-0.007
384.89	-0.007
385.09	-0.007
385.30	-0.007
385.51	-0.007
385.71	-0.007
385.92	-0.007
386.13	-0.007
386.33	-0.007
386.54	-0.007
386.75	-0.007
386.95	-0.007
387.16	-0.007
387.37	-0.007
387.58	-0.007
387.78	-0.007
387.99	-0.007
388.20	-0.007
388.40	-0.007
388.61	-0.007
388.82	-0.007
389.02	-0.007
389.23	-0.007
389.44	-0.007
389.64	-0.007
389.85	-0.007
390.06	-0.007
390.26	-0.007
390.47	-0.007
390.68	-0.007
390.88	-0.007
391.09	-0.007
391.30	-0.007
391.50	-0.007
391.71	-0.007
391.92	-0.007
392.12	-0.007
392.33	-0.007
392.53	-0.007
392.74	-0.007
392.95	-0.007
393.15	-0.007
393.36	-0.006
393.57	-0.006
393.77	-0.006
393.98	-0.006
394.19	-0.006
394.39	-0.006
394.60	-0.006
394.81	-0.006
395.01	-0.007
395.22	-0.007
395.43	-0.007
395.63	-0.007
395.84	-0.007
396.04	-0.007
396.25	-0.007
396.46	-0.007
396.66	-0.007
396.87	-0.007
397.08	-0.007
397.28	-0.007
397.49	-0.007
397.69	-0.007
397.90	-0.007
398.11	-0.007
398.31	-0.007
398.52	-0.007
398.73	-0.007
398.93	-0.007
399.14	-0.007
399.34	-0.007
399.55	-0.007
399.76	-0.007
399.96	-0.007
400.17	-0.007
400.37	-0.007
400.58	-0.007
400.79	-0.007
400.99	-0.007
401.20	-0.007
401.41	-0.007
401.61	-0.007
401.82	-0.007
402.02	-0.007
402.23	-0.007
402.44	-0.007
402.64	-0.007
402.85	-0.007
403.05	-0.007
403.26	-0.007
403.47	-0.007
403.67	-0.007
403.88	-0.007
404.08	-0.007
404.29	-0.007
404.50	-0.007
404.70	-0.007
404.91	-0.007
405.11	-0.007
405.32	-0.007
405.52	-0.007
405.73	-0.007
405.94	-0.007
406.14	-0.007
406.35	-0.007
406.55	-0.007
406.76	-0.007
406.97	-0.007
407.17	-0.007
407.38	-0.007
407.58	-0.007
407.79	-0.007
407.99	-0.007
408.20	-0.007
408.41	-0.007
408.61	-0.007
408.82	-0.007
409.02	-0.007
409.23	-0.007
409.43	-0.007
409.64	-0.007
409.84	-0.007
410.05	-0.007
410.26	-0.007
410.46	-0.007
410.67	-0.007
410.87	-0.007
411.08	-0.007
411.28	-0.007
411.49	-0.007
411.69	-0.007
411.90	-0.007
412.11	-0.007
412.31	-0.007
412.52	-0.007
412.72	-0.007
412.93	-0.007
413.13	-0.007
413.34	-0.007
413.54	-0.007
413.75	-0.007
413.95	-0.007
414.16	-0.007
414.37	-0.007
414.57	-0.007
414.78	-0.007
414.98	-0.006
415.19	-0.006
415.39	-0.006
415.60	-0.007
415.80	-0.007
416.01	-0.007
416.21	-0.007
416.42	-0.007
416.62	-0.007
416.83	-0.007
417.03	-0.007
417.24	-0.007
417.44	-0.007
417.65	-0.007
417.86	-0.007
418.06	-0.007
418.27	-0.007
418.47	-0.007
418.68	-0.007
418.88	-0.008
419.09	-0.008
419.29	-0.008
419.50	-0.008
419.70	-0.007
419.91	-0.007
420.11	-0.007
420.32	-0.007
420.52	-0.007
420.73	-0.007
420.93	-0.007
421.14	-0.007
421.34	-0.007
421.55	-0.007
421.75	-0.007
421.96	-0.007
422.16	-0.007
422.37	-0.007
422.57	-0.007
422.78	-0.007
422.98	-0.007
423.19	-0.007
423.39	-0.007
423.60	-0.007
423.80	-0.007
424.01	-0.007
424.21	-0.007
424.42	-0.007
424.62	-0.006
424.83	-0.007
425.03	-0.007
425.23	-0.007
425.44	-0.007
425.64	-0.007
425.85	-0.007
426.05	-0.007
426.26	-0.007
426.46	-0.007
426.67	-0.007
426.87	-0.007
427.08	-0.007
427.28	-0.007
427.49	-0.007
427.69	-0.007
427.90	-0.007
428.10	-0.007
428.31	-0.007
428.51	-0.007
428.71	-0.007
428.92	-0.007
429.12	-0.007
429.33	-0.007
429.53	-0.007
429.74	-0.007
429.94	-0.007
430.15	-0.007
430.35	-0.007
430.56	-0.007
430.76	-0.007
430.96	-0.007
431.17	-0.007
431.37	-0.007
431.58	-0.006
431.78	-0.006
431.99	-0.006
432.19	-0.006
432.40	-0.006
432.60	-0.006
432.80	-0.006
433.01	-0.006
433.21	-0.006
433.42	-0.007
433.62	-0.006
433.83	-0.007
434.03	-0.006
434.23	-0.006
434.44	-0.007
434.64	-0.007
434.85	-0.007
435.05	-0.007
435.26	-0.007
435.46	-0.007
435.66	-0.007
435.87	-0.007
436.07	-0.007
436.28	-0.007
436.48	-0.007
436.69	-0.007
436.89	-0.007
437.09	-0.007
437.30	-0.007
437.50	-0.007
437.71	-0.007
437.91	-0.007
438.11	-0.007
438.32	-0.007
438.52	-0.007
438.73	-0.007
438.93	-0.007
439.13	-0.006
439.34	-0.007
439.54	-0.007
439.75	-0.007
439.95	-0.007
440.15	-0.007
440.36	-0.007
440.56	-0.007
440.77	-0.007
440.97	-0.007
441.17	-0.007
441.38	-0.007
441.58	-0.007
441.79	-0.007
441.99	-0.007
442.19	-0.007
442.40	-0.007
442.60	-0.007
442.81	-0.007
443.01	-0.007
443.21	-0.007
443.42	-0.007
443.62	-0.007
443.82	-0.007
444.03	-0.007
444.23	-0.007
444.44	-0.007
444.64	-0.007
444.84	-0.007
445.05	-0.007
445.25	-0.007
445.45	-0.006
445.66	-0.007
445.86	-0.007
446.06	-0.007
446.27	-0.006
446.47	-0.006
446.68	-0.007
446.88	-0.006
447.08	-0.006
447.29	-0.007
447.49	-0.007
447.69	-0.007
447.90	-0.007
448.10	-0.006
448.30	-0.007
448.51	-0.007
448.71	-0.007
448.91	-0.006
449.12	-0.007
449.32	-0.007
449.52	-0.006
449.73	-0.006
449.93	-0.006
