SpectraSuite Data File
++++++++++++++++++++++++++++++++++++
Date: Mon Jun 15 09:39:55 PDT 2015
User: introlabs
Dark Spectrum Present: Yes
Reference Spectrum Present: Yes
Number of Sampled Component Spectra: 1
Spectrometers: USB4H08886
Integration Time (usec): 44366 (USB4H08886)
Spectra Averaged: 20 (USB4H08886)
Boxcar Smoothing: 5 (USB4H08886)
Correct for Electrical Dark: Yes (USB4H08886)
Strobe/Lamp Enabled: No (USB4H08886)
Correct for Detector Non-linearity: Yes (USB4H08886)
Correct for Stray Light: Yes (USB4H08886)
Number of Pixels in Processed Spectrum: 3648
>>>>>Begin Processed Spectral Data<<<<<
178.14	-0.000
178.36	-0.000
178.57	-0.000
178.79	-0.000
179.01	-0.986
179.22	-0.000
179.44	-0.000
179.65	-0.485
179.87	-0.122
180.08	0.253
180.30	0.241
180.52	0.184
180.73	0.028
180.95	0.051
181.16	0.077
181.38	0.069
181.59	0.069
181.81	0.055
182.03	0.067
182.24	0.053
182.46	0.041
182.67	0.031
182.89	0.031
183.10	0.032
183.32	0.027
183.54	0.023
183.75	0.026
183.97	0.031
184.18	0.031
184.40	0.021
184.61	0.029
184.83	0.032
185.04	0.027
185.26	0.027
185.48	0.024
185.69	0.016
185.91	0.018
186.12	0.013
186.34	0.014
186.55	0.006
186.77	0.008
186.98	0.001
187.20	-0.006
187.42	-0.002
187.63	-0.004
187.85	-0.002
188.06	0.002
188.28	0.001
188.49	0.007
188.71	0.002
188.92	0.001
189.14	-0.002
189.36	0.002
189.57	0.003
189.79	0.002
190.00	0.002
190.22	-0.004
190.43	0.002
190.65	-0.004
190.86	-0.004
191.08	-0.002
191.29	0.001
191.51	0.004
191.72	-0.000
191.94	-0.003
192.16	-0.006
192.37	-0.007
192.59	-0.003
192.80	-0.013
193.02	-0.002
193.23	-0.000
193.45	-0.004
193.66	-0.006
193.88	-0.007
194.09	-0.002
194.31	-0.002
194.52	0.004
194.74	0.002
194.95	-0.004
195.17	-0.002
195.38	-0.012
195.60	-0.022
195.81	-0.022
196.03	-0.020
196.25	-0.014
196.46	-0.019
196.68	-0.017
196.89	-0.020
197.11	-0.016
197.32	-0.011
197.54	-0.013
197.75	-0.003
197.97	0.003
198.18	0.001
198.40	0.009
198.61	-0.002
198.83	0.000
199.04	0.003
199.26	0.003
199.47	0.001
199.69	0.004
199.90	0.022
200.12	0.010
200.33	0.013
200.55	0.015
200.76	-0.003
200.98	0.000
201.19	-0.004
201.41	-0.007
201.62	-0.004
201.84	-0.002
202.05	-0.002
202.27	-0.012
202.48	-0.005
202.70	-0.008
202.91	-0.006
203.13	0.001
203.34	-0.005
203.56	-0.003
203.77	0.000
203.99	-0.009
204.20	-0.015
204.42	-0.020
204.63	-0.021
204.85	-0.022
205.06	-0.025
205.28	-0.026
205.49	-0.016
205.71	-0.007
205.92	-0.005
206.14	-0.013
206.35	0.004
206.56	0.019
206.78	0.020
206.99	0.024
207.21	0.026
207.42	0.027
207.64	0.024
207.85	0.019
208.07	0.024
208.28	0.022
208.50	0.027
208.71	0.020
208.93	0.015
209.14	0.023
209.36	0.022
209.57	0.026
209.79	0.032
210.00	0.040
210.22	0.038
210.43	0.033
210.64	0.033
210.86	0.021
211.07	0.018
211.29	0.014
211.50	0.008
211.72	-0.002
211.93	-0.011
212.15	-0.012
212.36	-0.015
212.58	-0.015
212.79	-0.014
213.01	-0.017
213.22	-0.005
213.43	-0.004
213.65	-0.004
213.86	-0.004
214.08	0.012
214.29	0.014
214.51	0.011
214.72	0.008
214.94	0.009
215.15	0.012
215.36	0.014
215.58	0.014
215.79	0.010
216.01	0.010
216.22	0.013
216.44	0.004
216.65	0.004
216.87	0.008
217.08	0.007
217.29	0.012
217.51	0.011
217.72	0.005
217.94	0.008
218.15	0.016
218.37	0.012
218.58	0.006
218.80	0.014
219.01	0.009
219.22	0.006
219.44	0.008
219.65	0.002
219.87	-0.001
220.08	-0.002
220.30	-0.008
220.51	-0.012
220.72	-0.010
220.94	-0.016
221.15	-0.021
221.37	-0.019
221.58	-0.020
221.79	-0.016
222.01	-0.022
222.22	-0.025
222.44	-0.022
222.65	-0.023
222.87	-0.025
223.08	-0.027
223.29	-0.021
223.51	-0.025
223.72	-0.024
223.94	-0.027
224.15	-0.026
224.36	-0.022
224.58	-0.025
224.79	-0.020
225.01	-0.016
225.22	-0.015
225.44	-0.017
225.65	-0.017
225.86	-0.014
226.08	-0.014
226.29	-0.015
226.51	-0.018
226.72	-0.016
226.93	-0.012
227.15	-0.017
227.36	-0.022
227.58	-0.025
227.79	-0.018
228.00	-0.021
228.22	-0.026
228.43	-0.028
228.65	-0.026
228.86	-0.027
229.07	-0.029
229.29	-0.029
229.50	-0.031
229.72	-0.030
229.93	-0.033
230.14	-0.036
230.36	-0.035
230.57	-0.034
230.78	-0.036
231.00	-0.039
231.21	-0.043
231.43	-0.043
231.64	-0.044
231.85	-0.044
232.07	-0.043
232.28	-0.041
232.50	-0.043
232.71	-0.046
232.92	-0.048
233.14	-0.050
233.35	-0.048
233.56	-0.047
233.78	-0.050
233.99	-0.051
234.21	-0.050
234.42	-0.052
234.63	-0.053
234.85	-0.054
235.06	-0.054
235.27	-0.054
235.49	-0.051
235.70	-0.052
235.91	-0.053
236.13	-0.051
236.34	-0.052
236.56	-0.053
236.77	-0.053
236.98	-0.052
237.20	-0.052
237.41	-0.050
237.62	-0.049
237.84	-0.051
238.05	-0.049
238.26	-0.049
238.48	-0.049
238.69	-0.048
238.91	-0.047
239.12	-0.046
239.33	-0.046
239.55	-0.044
239.76	-0.044
239.97	-0.043
240.19	-0.042
240.40	-0.042
240.61	-0.042
240.83	-0.041
241.04	-0.041
241.25	-0.040
241.47	-0.039
241.68	-0.037
241.89	-0.038
242.11	-0.037
242.32	-0.037
242.53	-0.037
242.75	-0.036
242.96	-0.035
243.17	-0.034
243.39	-0.033
243.60	-0.033
243.81	-0.033
244.03	-0.034
244.24	-0.033
244.45	-0.032
244.67	-0.032
244.88	-0.031
245.09	-0.030
245.31	-0.030
245.52	-0.030
245.73	-0.029
245.95	-0.030
246.16	-0.029
246.37	-0.028
246.59	-0.028
246.80	-0.028
247.01	-0.028
247.23	-0.028
247.44	-0.028
247.65	-0.028
247.87	-0.028
248.08	-0.027
248.29	-0.027
248.51	-0.027
248.72	-0.026
248.93	-0.026
249.15	-0.025
249.36	-0.025
249.57	-0.025
249.78	-0.025
250.00	-0.024
250.21	-0.024
250.42	-0.024
250.64	-0.023
250.85	-0.023
251.06	-0.023
251.28	-0.022
251.49	-0.022
251.70	-0.022
251.92	-0.022
252.13	-0.021
252.34	-0.021
252.55	-0.021
252.77	-0.021
252.98	-0.021
253.19	-0.021
253.41	-0.021
253.62	-0.021
253.83	-0.021
254.05	-0.021
254.26	-0.021
254.47	-0.021
254.68	-0.021
254.90	-0.021
255.11	-0.020
255.32	-0.020
255.54	-0.020
255.75	-0.020
255.96	-0.020
256.17	-0.020
256.39	-0.020
256.60	-0.020
256.81	-0.020
257.03	-0.020
257.24	-0.020
257.45	-0.020
257.66	-0.020
257.88	-0.020
258.09	-0.021
258.30	-0.020
258.51	-0.021
258.73	-0.021
258.94	-0.021
259.15	-0.021
259.37	-0.021
259.58	-0.022
259.79	-0.022
260.00	-0.022
260.22	-0.022
260.43	-0.022
260.64	-0.023
260.85	-0.023
261.07	-0.023
261.28	-0.024
261.49	-0.024
261.71	-0.024
261.92	-0.024
262.13	-0.024
262.34	-0.024
262.56	-0.024
262.77	-0.024
262.98	-0.024
263.19	-0.024
263.41	-0.025
263.62	-0.024
263.83	-0.025
264.04	-0.025
264.26	-0.025
264.47	-0.025
264.68	-0.026
264.89	-0.026
265.11	-0.026
265.32	-0.026
265.53	-0.026
265.74	-0.027
265.96	-0.027
266.17	-0.027
266.38	-0.027
266.59	-0.028
266.81	-0.028
267.02	-0.028
267.23	-0.029
267.44	-0.029
267.65	-0.029
267.87	-0.030
268.08	-0.030
268.29	-0.030
268.50	-0.030
268.72	-0.030
268.93	-0.031
269.14	-0.031
269.35	-0.031
269.57	-0.031
269.78	-0.032
269.99	-0.032
270.20	-0.032
270.41	-0.032
270.63	-0.032
270.84	-0.033
271.05	-0.033
271.26	-0.033
271.48	-0.034
271.69	-0.034
271.90	-0.034
272.11	-0.034
272.32	-0.035
272.54	-0.035
272.75	-0.035
272.96	-0.036
273.17	-0.036
273.39	-0.036
273.60	-0.036
273.81	-0.036
274.02	-0.036
274.23	-0.036
274.45	-0.036
274.66	-0.036
274.87	-0.037
275.08	-0.037
275.29	-0.037
275.51	-0.036
275.72	-0.036
275.93	-0.036
276.14	-0.036
276.35	-0.036
276.57	-0.036
276.78	-0.036
276.99	-0.036
277.20	-0.036
277.41	-0.036
277.63	-0.036
277.84	-0.035
278.05	-0.035
278.26	-0.035
278.47	-0.035
278.69	-0.035
278.90	-0.035
279.11	-0.035
279.32	-0.034
279.53	-0.034
279.74	-0.034
279.96	-0.033
280.17	-0.033
280.38	-0.033
280.59	-0.033
280.80	-0.032
281.02	-0.032
281.23	-0.032
281.44	-0.032
281.65	-0.032
281.86	-0.032
282.07	-0.032
282.29	-0.031
282.50	-0.031
282.71	-0.031
282.92	-0.031
283.13	-0.030
283.35	-0.030
283.56	-0.030
283.77	-0.030
283.98	-0.030
284.19	-0.029
284.40	-0.029
284.62	-0.029
284.83	-0.028
285.04	-0.028
285.25	-0.027
285.46	-0.027
285.67	-0.026
285.88	-0.026
286.10	-0.025
286.31	-0.024
286.52	-0.023
286.73	-0.022
286.94	-0.022
287.15	-0.021
287.37	-0.021
287.58	-0.020
287.79	-0.019
288.00	-0.019
288.21	-0.018
288.42	-0.018
288.63	-0.017
288.85	-0.017
289.06	-0.016
289.27	-0.016
289.48	-0.015
289.69	-0.014
289.90	-0.014
290.11	-0.013
290.33	-0.013
290.54	-0.012
290.75	-0.012
290.96	-0.012
291.17	-0.011
291.38	-0.011
291.59	-0.010
291.81	-0.010
292.02	-0.010
292.23	-0.009
292.44	-0.009
292.65	-0.009
292.86	-0.008
293.07	-0.008
293.28	-0.008
293.50	-0.008
293.71	-0.008
293.92	-0.007
294.13	-0.007
294.34	-0.007
294.55	-0.007
294.76	-0.006
294.97	-0.006
295.19	-0.006
295.40	-0.006
295.61	-0.006
295.82	-0.006
296.03	-0.006
296.24	-0.006
296.45	-0.006
296.66	-0.006
296.87	-0.006
297.09	-0.006
297.30	-0.006
297.51	-0.006
297.72	-0.006
297.93	-0.006
298.14	-0.006
298.35	-0.005
298.56	-0.006
298.77	-0.006
298.99	-0.005
299.20	-0.005
299.41	-0.005
299.62	-0.005
299.83	-0.005
300.04	-0.005
300.25	-0.005
300.46	-0.005
300.67	-0.005
300.88	-0.005
301.10	-0.004
301.31	-0.005
301.52	-0.005
301.73	-0.005
301.94	-0.005
302.15	-0.005
302.36	-0.005
302.57	-0.005
302.78	-0.005
302.99	-0.005
303.20	-0.005
303.41	-0.005
303.63	-0.005
303.84	-0.005
304.05	-0.005
304.26	-0.005
304.47	-0.005
304.68	-0.005
304.89	-0.004
305.10	-0.004
305.31	-0.004
305.52	-0.004
305.73	-0.004
305.94	-0.004
306.15	-0.004
306.37	-0.004
306.58	-0.004
306.79	-0.004
307.00	-0.004
307.21	-0.004
307.42	-0.004
307.63	-0.004
307.84	-0.004
308.05	-0.004
308.26	-0.004
308.47	-0.004
308.68	-0.004
308.89	-0.004
309.10	-0.004
309.31	-0.004
309.52	-0.004
309.73	-0.005
309.95	-0.005
310.16	-0.005
310.37	-0.005
310.58	-0.005
310.79	-0.005
311.00	-0.005
311.21	-0.005
311.42	-0.004
311.63	-0.004
311.84	-0.004
312.05	-0.004
312.26	-0.004
312.47	-0.004
312.68	-0.004
312.89	-0.004
313.10	-0.004
313.31	-0.004
313.52	-0.004
313.73	-0.004
313.94	-0.004
314.15	-0.004
314.36	-0.004
314.57	-0.004
314.78	-0.004
314.99	-0.004
315.21	-0.004
315.42	-0.004
315.63	-0.004
315.84	-0.004
316.05	-0.004
316.26	-0.004
316.47	-0.004
316.68	-0.004
316.89	-0.004
317.10	-0.004
317.31	-0.004
317.52	-0.004
317.73	-0.004
317.94	-0.004
318.15	-0.004
318.36	-0.004
318.57	-0.004
318.78	-0.003
318.99	-0.003
319.20	-0.003
319.41	-0.003
319.62	-0.003
319.83	-0.003
320.04	-0.003
320.25	-0.003
320.46	-0.004
320.67	-0.003
320.88	-0.004
321.09	-0.004
321.30	-0.004
321.51	-0.004
321.72	-0.004
321.93	-0.004
322.14	-0.004
322.35	-0.004
322.56	-0.004
322.77	-0.004
322.98	-0.004
323.19	-0.004
323.40	-0.004
323.61	-0.004
323.82	-0.003
324.03	-0.003
324.24	-0.003
324.45	-0.003
324.66	-0.003
324.87	-0.003
325.08	-0.003
325.29	-0.003
325.50	-0.003
325.71	-0.003
325.92	-0.003
326.13	-0.003
326.34	-0.003
326.55	-0.003
326.76	-0.003
326.97	-0.003
327.18	-0.003
327.39	-0.003
327.60	-0.003
327.80	-0.003
328.01	-0.003
328.22	-0.003
328.43	-0.003
328.64	-0.003
328.85	-0.003
329.06	-0.003
329.27	-0.003
329.48	-0.003
329.69	-0.003
329.90	-0.003
330.11	-0.003
330.32	-0.003
330.53	-0.003
330.74	-0.003
330.95	-0.003
331.16	-0.003
331.37	-0.003
331.58	-0.003
331.79	-0.003
332.00	-0.003
332.21	-0.002
332.42	-0.002
332.63	-0.002
332.83	-0.002
333.04	-0.002
333.25	-0.002
333.46	-0.002
333.67	-0.002
333.88	-0.002
334.09	-0.002
334.30	-0.002
334.51	-0.002
334.72	-0.002
334.93	-0.002
335.14	-0.002
335.35	-0.002
335.56	-0.002
335.77	-0.002
335.98	-0.002
336.18	-0.002
336.39	-0.002
336.60	-0.002
336.81	-0.002
337.02	-0.001
337.23	-0.001
337.44	-0.001
337.65	-0.001
337.86	-0.001
338.07	-0.001
338.28	-0.001
338.49	-0.001
338.70	-0.001
338.91	-0.001
339.11	-0.001
339.32	-0.001
339.53	-0.001
339.74	-0.001
339.95	-0.001
340.16	-0.001
340.37	-0.001
340.58	-0.001
340.79	-0.001
341.00	-0.000
341.21	-0.000
341.41	-0.000
341.62	-0.001
341.83	-0.000
342.04	-0.001
342.25	-0.000
342.46	-0.000
342.67	-0.000
342.88	-0.000
343.09	-0.000
343.30	-0.000
343.50	-0.000
343.71	-0.000
343.92	0.000
344.13	0.000
344.34	0.000
344.55	0.000
344.76	0.000
344.97	0.000
345.18	0.000
345.38	0.000
345.59	0.000
345.80	0.000
346.01	0.000
346.22	0.000
346.43	0.000
346.64	0.000
346.85	0.001
347.06	0.001
347.26	0.001
347.47	0.001
347.68	0.001
347.89	0.001
348.10	0.001
348.31	0.001
348.52	0.001
348.73	0.001
348.93	0.001
349.14	0.000
349.35	0.000
349.56	0.001
349.77	0.001
349.98	0.001
350.19	0.001
350.39	0.001
350.60	0.001
350.81	0.001
351.02	0.001
351.23	0.001
351.44	0.001
351.65	0.001
351.86	0.001
352.06	0.001
352.27	0.001
352.48	0.001
352.69	0.001
352.90	0.002
353.11	0.002
353.31	0.002
353.52	0.002
353.73	0.002
353.94	0.002
354.15	0.002
354.36	0.002
354.57	0.002
354.77	0.002
354.98	0.002
355.19	0.002
355.40	0.002
355.61	0.002
355.82	0.002
356.02	0.002
356.23	0.002
356.44	0.002
356.65	0.003
356.86	0.002
357.07	0.002
357.27	0.002
357.48	0.002
357.69	0.002
357.90	0.002
358.11	0.002
358.32	0.002
358.52	0.002
358.73	0.002
358.94	0.002
359.15	0.002
359.36	0.003
359.56	0.003
359.77	0.003
359.98	0.003
360.19	0.003
360.40	0.003
360.61	0.003
360.81	0.003
361.02	0.003
361.23	0.003
361.44	0.003
361.65	0.003
361.85	0.003
362.06	0.003
362.27	0.003
362.48	0.003
362.69	0.003
362.89	0.003
363.10	0.003
363.31	0.003
363.52	0.003
363.73	0.003
363.93	0.003
364.14	0.003
364.35	0.003
364.56	0.003
364.77	0.003
364.97	0.003
365.18	0.003
365.39	0.003
365.60	0.003
365.81	0.003
366.01	0.003
366.22	0.003
366.43	0.003
366.64	0.003
366.84	0.003
367.05	0.004
367.26	0.004
367.47	0.004
367.68	0.004
367.88	0.004
368.09	0.004
368.30	0.004
368.51	0.004
368.71	0.004
368.92	0.004
369.13	0.004
369.34	0.004
369.55	0.004
369.75	0.004
369.96	0.004
370.17	0.004
370.38	0.004
370.58	0.004
370.79	0.004
371.00	0.004
371.21	0.005
371.41	0.004
371.62	0.004
371.83	0.004
372.04	0.005
372.24	0.005
372.45	0.004
372.66	0.004
372.87	0.004
373.07	0.004
373.28	0.005
373.49	0.005
373.70	0.004
373.90	0.005
374.11	0.004
374.32	0.004
374.53	0.004
374.73	0.004
374.94	0.004
375.15	0.004
375.36	0.004
375.56	0.004
375.77	0.004
375.98	0.004
376.19	0.004
376.39	0.004
376.60	0.004
376.81	0.004
377.02	0.004
377.22	0.004
377.43	0.004
377.64	0.004
377.84	0.004
378.05	0.004
378.26	0.004
378.47	0.004
378.67	0.005
378.88	0.005
379.09	0.005
379.30	0.004
379.50	0.004
379.71	0.004
379.92	0.004
380.12	0.004
380.33	0.004
380.54	0.004
380.75	0.004
380.95	0.004
381.16	0.004
381.37	0.004
381.57	0.004
381.78	0.004
381.99	0.004
382.20	0.004
382.40	0.004
382.61	0.005
382.82	0.004
383.02	0.004
383.23	0.005
383.44	0.005
383.64	0.005
383.85	0.005
384.06	0.005
384.27	0.004
384.47	0.004
384.68	0.004
384.89	0.004
385.09	0.004
385.30	0.004
385.51	0.004
385.71	0.004
385.92	0.004
386.13	0.004
386.33	0.004
386.54	0.004
386.75	0.004
386.95	0.004
387.16	0.004
387.37	0.004
387.58	0.004
387.78	0.004
387.99	0.004
388.20	0.005
388.40	0.005
388.61	0.005
388.82	0.005
389.02	0.004
389.23	0.004
389.44	0.004
389.64	0.005
389.85	0.005
390.06	0.004
390.26	0.004
390.47	0.004
390.68	0.004
390.88	0.004
391.09	0.004
391.30	0.004
391.50	0.004
391.71	0.004
391.92	0.004
392.12	0.004
392.33	0.004
392.53	0.005
392.74	0.005
392.95	0.005
393.15	0.005
393.36	0.005
393.57	0.005
393.77	0.005
393.98	0.005
394.19	0.005
394.39	0.005
394.60	0.005
394.81	0.005
395.01	0.005
395.22	0.005
395.43	0.005
395.63	0.005
395.84	0.005
396.04	0.005
396.25	0.005
396.46	0.004
396.66	0.004
396.87	0.004
397.08	0.004
397.28	0.004
397.49	0.005
397.69	0.005
397.90	0.004
398.11	0.004
398.31	0.004
398.52	0.004
398.73	0.005
398.93	0.005
399.14	0.005
399.34	0.005
399.55	0.005
399.76	0.005
399.96	0.005
400.17	0.005
400.37	0.005
400.58	0.005
400.79	0.005
400.99	0.005
401.20	0.005
401.41	0.005
401.61	0.005
401.82	0.005
402.02	0.005
402.23	0.005
402.44	0.005
402.64	0.005
402.85	0.005
403.05	0.005
403.26	0.005
403.47	0.005
403.67	0.005
403.88	0.005
404.08	0.005
404.29	0.005
404.50	0.005
404.70	0.005
404.91	0.005
405.11	0.005
405.32	0.005
405.52	0.005
405.73	0.005
405.94	0.005
406.14	0.005
406.35	0.005
406.55	0.005
406.76	0.005
406.97	0.005
407.17	0.005
407.38	0.005
407.58	0.004
407.79	0.004
407.99	0.005
408.20	0.005
408.41	0.005
408.61	0.005
408.82	0.005
409.02	0.005
409.23	0.005
409.43	0.005
409.64	0.005
409.84	0.005
410.05	0.005
410.26	0.005
410.46	0.005
410.67	0.005
410.87	0.005
411.08	0.005
411.28	0.005
411.49	0.005
411.69	0.005
411.90	0.005
412.11	0.005
412.31	0.005
412.52	0.005
412.72	0.005
412.93	0.005
413.13	0.005
413.34	0.005
413.54	0.005
413.75	0.005
413.95	0.005
414.16	0.005
414.37	0.005
414.57	0.005
414.78	0.005
414.98	0.005
415.19	0.005
415.39	0.005
415.60	0.005
415.80	0.004
416.01	0.004
416.21	0.005
416.42	0.004
416.62	0.004
416.83	0.004
417.03	0.004
417.24	0.004
417.44	0.004
417.65	0.004
417.86	0.004
418.06	0.004
418.27	0.004
418.47	0.004
418.68	0.004
418.88	0.004
419.09	0.004
419.29	0.004
419.50	0.004
419.70	0.004
419.91	0.004
420.11	0.004
420.32	0.004
420.52	0.004
420.73	0.004
420.93	0.004
421.14	0.004
421.34	0.004
421.55	0.004
421.75	0.004
421.96	0.004
422.16	0.004
422.37	0.004
422.57	0.004
422.78	0.004
422.98	0.004
423.19	0.004
423.39	0.004
423.60	0.004
423.80	0.004
424.01	0.005
424.21	0.005
424.42	0.005
424.62	0.005
424.83	0.005
425.03	0.005
425.23	0.005
425.44	0.005
425.64	0.005
425.85	0.005
426.05	0.005
426.26	0.005
426.46	0.005
426.67	0.005
426.87	0.004
427.08	0.004
427.28	0.004
427.49	0.004
427.69	0.004
427.90	0.004
428.10	0.004
428.31	0.004
428.51	0.004
428.71	0.004
428.92	0.004
429.12	0.004
429.33	0.004
429.53	0.004
429.74	0.004
429.94	0.004
430.15	0.004
430.35	0.004
430.56	0.004
430.76	0.005
430.96	0.005
431.17	0.005
431.37	0.005
431.58	0.005
431.78	0.005
431.99	0.005
432.19	0.005
432.40	0.005
432.60	0.005
432.80	0.005
433.01	0.005
433.21	0.005
433.42	0.005
433.62	0.005
433.83	0.005
434.03	0.005
434.23	0.005
434.44	0.004
434.64	0.005
434.85	0.004
435.05	0.005
435.26	0.004
435.46	0.004
435.66	0.004
435.87	0.004
436.07	0.004
436.28	0.004
436.48	0.004
436.69	0.004
436.89	0.004
437.09	0.004
437.30	0.004
437.50	0.004
437.71	0.004
437.91	0.004
438.11	0.005
438.32	0.005
438.52	0.005
438.73	0.005
438.93	0.005
439.13	0.005
439.34	0.005
439.54	0.005
439.75	0.004
439.95	0.004
440.15	0.004
440.36	0.004
440.56	0.004
440.77	0.004
440.97	0.004
441.17	0.004
441.38	0.004
441.58	0.004
441.79	0.004
441.99	0.004
442.19	0.004
442.40	0.004
442.60	0.004
442.81	0.004
443.01	0.004
443.21	0.004
443.42	0.004
443.62	0.004
443.82	0.004
444.03	0.004
444.23	0.004
444.44	0.005
444.64	0.004
444.84	0.005
445.05	0.005
445.25	0.005
445.45	0.005
445.66	0.005
445.86	0.005
446.06	0.005
446.27	0.005
446.47	0.005
446.68	0.005
446.88	0.005
447.08	0.005
447.29	0.005
447.49	0.005
447.69	0.005
447.90	0.005
448.10	0.005
448.30	0.005
448.51	0.005
448.71	0.005
448.91	0.005
449.12	0.005
449.32	0.005
449.52	0.005
449.73	0.005
449.93	0.005
450.14	0.005
450.34	0.005
450.54	0.005
450.75	0.005
450.95	0.005
451.15	0.005
451.36	0.005
451.56	0.005
451.76	0.005
451.97	0.005
452.17	0.005
452.37	0.005
452.58	0.005
452.78	0.005
452.98	0.005
453.19	0.004
453.39	0.004
453.59	0.004
453.79	0.004
454.00	0.004
454.20	0.004
454.40	0.004
454.61	0.004
454.81	0.004
455.01	0.004
455.22	0.004
455.42	0.004
455.62	0.004
455.83	0.004
456.03	0.005
456.23	0.005
456.44	0.005
456.64	0.005
456.84	0.005
457.04	0.005
457.25	0.005
457.45	0.005
457.65	0.005
457.86	0.005
458.06	0.005
458.26	0.005
