SpectraSuite Data File
++++++++++++++++++++++++++++++++++++
Date: Mon Jun 15 05:32:15 PDT 2015
User: introlabs
Dark Spectrum Present: Yes
Reference Spectrum Present: Yes
Number of Sampled Component Spectra: 1
Spectrometers: USB4H08886
Integration Time (usec): 99009 (USB4H08886)
Spectra Averaged: 20 (USB4H08886)
Boxcar Smoothing: 5 (USB4H08886)
Correct for Electrical Dark: Yes (USB4H08886)
Strobe/Lamp Enabled: No (USB4H08886)
Correct for Detector Non-linearity: Yes (USB4H08886)
Correct for Stray Light: Yes (USB4H08886)
Number of Pixels in Processed Spectrum: 3648
>>>>>Begin Processed Spectral Data<<<<<
178.14	-0.000
178.36	-0.000
178.57	-0.000
178.79	0.437
179.01	1.151
179.22	0.413
179.44	0.334
179.65	0.844
179.87	1.155
180.08	1.907
180.30	1.463
180.52	-0.000
180.73	-0.000
180.95	-0.000
181.16	-0.173
181.38	-0.094
181.59	-0.092
181.81	-0.075
182.03	-0.038
182.24	-0.024
182.46	-0.021
182.67	-0.019
182.89	-0.016
183.10	-0.020
183.32	-0.024
183.54	-0.026
183.75	-0.021
183.97	-0.016
184.18	-0.019
184.40	-0.019
184.61	-0.025
184.83	-0.015
185.04	-0.014
185.26	-0.008
185.48	-0.005
185.69	0.002
185.91	-0.000
186.12	-0.006
186.34	-0.015
186.55	-0.011
186.77	-0.007
186.98	-0.002
187.20	-0.005
187.42	-0.004
187.63	-0.011
187.85	-0.015
188.06	-0.016
188.28	-0.017
188.49	-0.005
188.71	0.009
188.92	0.006
189.14	-0.002
189.36	-0.002
189.57	-0.005
189.79	-0.006
190.00	-0.002
190.22	-0.006
190.43	-0.010
190.65	-0.001
190.86	-0.015
191.08	-0.023
191.29	-0.022
191.51	-0.011
191.72	-0.010
191.94	-0.008
192.16	-0.005
192.37	-0.005
192.59	-0.006
192.80	-0.006
193.02	-0.010
193.23	-0.006
193.45	-0.002
193.66	0.003
193.88	-0.014
194.09	-0.022
194.31	-0.023
194.52	-0.023
194.74	-0.024
194.95	-0.016
195.17	-0.012
195.38	-0.009
195.60	-0.006
195.81	-0.013
196.03	-0.017
196.25	-0.008
196.46	0.000
196.68	-0.002
196.89	-0.000
197.11	-0.004
197.32	-0.011
197.54	-0.013
197.75	-0.022
197.97	-0.026
198.18	-0.022
198.40	-0.020
198.61	-0.025
198.83	-0.024
199.04	-0.029
199.26	-0.030
199.47	-0.030
199.69	-0.032
199.90	-0.031
200.12	-0.027
200.33	-0.027
200.55	-0.024
200.76	-0.032
200.98	-0.027
201.19	-0.024
201.41	-0.022
201.62	-0.021
201.84	-0.019
202.05	-0.011
202.27	-0.010
202.48	-0.012
202.70	-0.001
202.91	-0.003
203.13	-0.001
203.34	-0.002
203.56	-0.013
203.77	-0.010
203.99	-0.011
204.20	-0.014
204.42	-0.024
204.63	-0.028
204.85	-0.024
205.06	-0.034
205.28	-0.036
205.49	-0.039
205.71	-0.036
205.92	-0.030
206.14	-0.031
206.35	-0.032
206.56	-0.027
206.78	-0.020
206.99	-0.015
207.21	-0.021
207.42	-0.018
207.64	-0.012
207.85	-0.010
208.07	-0.012
208.28	-0.015
208.50	-0.013
208.71	-0.017
208.93	-0.019
209.14	-0.018
209.36	-0.020
209.57	-0.014
209.79	-0.015
210.00	-0.019
210.22	-0.012
210.43	-0.013
210.64	-0.017
210.86	-0.016
211.07	-0.013
211.29	-0.009
211.50	-0.009
211.72	-0.003
211.93	-0.008
212.15	-0.007
212.36	-0.004
212.58	-0.003
212.79	0.000
213.01	0.002
213.22	0.004
213.43	-0.002
213.65	-0.004
213.86	-0.008
214.08	-0.011
214.29	-0.008
214.51	-0.008
214.72	-0.010
214.94	-0.014
215.15	-0.017
215.36	-0.015
215.58	-0.016
215.79	-0.008
216.01	-0.008
216.22	-0.001
216.44	-0.008
216.65	-0.007
216.87	-0.003
217.08	0.000
217.29	-0.004
217.51	-0.002
217.72	-0.001
217.94	-0.006
218.15	-0.006
218.37	-0.004
218.58	-0.007
218.80	0.003
219.01	-0.001
219.22	-0.002
219.44	-0.002
219.65	0.004
219.87	0.003
220.08	-0.001
220.30	0.009
220.51	0.006
220.72	0.003
220.94	0.004
221.15	-0.001
221.37	0.002
221.58	-0.004
221.79	-0.002
222.01	-0.003
222.22	-0.004
222.44	-0.001
222.65	-0.005
222.87	-0.007
223.08	-0.007
223.29	-0.010
223.51	-0.010
223.72	-0.011
223.94	-0.012
224.15	-0.018
224.36	-0.021
224.58	-0.019
224.79	-0.017
225.01	-0.021
225.22	-0.020
225.44	-0.025
225.65	-0.026
225.86	-0.024
226.08	-0.027
226.29	-0.021
226.51	-0.018
226.72	-0.018
226.93	-0.020
227.15	-0.024
227.36	-0.024
227.58	-0.024
227.79	-0.020
228.00	-0.019
228.22	-0.018
228.43	-0.015
228.65	-0.019
228.86	-0.019
229.07	-0.016
229.29	-0.014
229.50	-0.009
229.72	-0.010
229.93	-0.010
230.14	-0.013
230.36	-0.010
230.57	-0.013
230.78	-0.012
231.00	-0.013
231.21	-0.013
231.43	-0.018
231.64	-0.020
231.85	-0.022
232.07	-0.020
232.28	-0.019
232.50	-0.018
232.71	-0.020
232.92	-0.021
233.14	-0.020
233.35	-0.021
233.56	-0.023
233.78	-0.022
233.99	-0.022
234.21	-0.024
234.42	-0.025
234.63	-0.024
234.85	-0.025
235.06	-0.025
235.27	-0.026
235.49	-0.026
235.70	-0.027
235.91	-0.026
236.13	-0.025
236.34	-0.024
236.56	-0.023
236.77	-0.024
236.98	-0.026
237.20	-0.026
237.41	-0.027
237.62	-0.027
237.84	-0.027
238.05	-0.027
238.26	-0.027
238.48	-0.026
238.69	-0.026
238.91	-0.027
239.12	-0.025
239.33	-0.025
239.55	-0.024
239.76	-0.022
239.97	-0.022
240.19	-0.021
240.40	-0.021
240.61	-0.020
240.83	-0.021
241.04	-0.022
241.25	-0.022
241.47	-0.022
241.68	-0.022
241.89	-0.022
242.11	-0.022
242.32	-0.023
242.53	-0.023
242.75	-0.024
242.96	-0.024
243.17	-0.024
243.39	-0.024
243.60	-0.023
243.81	-0.024
244.03	-0.024
244.24	-0.024
244.45	-0.024
244.67	-0.023
244.88	-0.024
245.09	-0.023
245.31	-0.023
245.52	-0.023
245.73	-0.023
245.95	-0.023
246.16	-0.023
246.37	-0.023
246.59	-0.023
246.80	-0.023
247.01	-0.023
247.23	-0.022
247.44	-0.022
247.65	-0.022
247.87	-0.022
248.08	-0.021
248.29	-0.021
248.51	-0.021
248.72	-0.021
248.93	-0.020
249.15	-0.021
249.36	-0.020
249.57	-0.020
249.78	-0.020
250.00	-0.019
250.21	-0.019
250.42	-0.020
250.64	-0.020
250.85	-0.020
251.06	-0.020
251.28	-0.020
251.49	-0.020
251.70	-0.020
251.92	-0.020
252.13	-0.020
252.34	-0.020
252.55	-0.020
252.77	-0.019
252.98	-0.019
253.19	-0.019
253.41	-0.019
253.62	-0.019
253.83	-0.019
254.05	-0.020
254.26	-0.019
254.47	-0.020
254.68	-0.020
254.90	-0.020
255.11	-0.020
255.32	-0.020
255.54	-0.020
255.75	-0.020
255.96	-0.020
256.17	-0.020
256.39	-0.020
256.60	-0.020
256.81	-0.020
257.03	-0.020
257.24	-0.020
257.45	-0.020
257.66	-0.020
257.88	-0.019
258.09	-0.019
258.30	-0.019
258.51	-0.019
258.73	-0.020
258.94	-0.019
259.15	-0.019
259.37	-0.020
259.58	-0.020
259.79	-0.019
260.00	-0.020
260.22	-0.020
260.43	-0.020
260.64	-0.020
260.85	-0.019
261.07	-0.019
261.28	-0.019
261.49	-0.019
261.71	-0.019
261.92	-0.019
262.13	-0.019
262.34	-0.019
262.56	-0.019
262.77	-0.019
262.98	-0.019
263.19	-0.019
263.41	-0.019
263.62	-0.019
263.83	-0.019
264.04	-0.019
264.26	-0.019
264.47	-0.019
264.68	-0.019
264.89	-0.019
265.11	-0.019
265.32	-0.019
265.53	-0.020
265.74	-0.020
265.96	-0.019
266.17	-0.019
266.38	-0.019
266.59	-0.019
266.81	-0.019
267.02	-0.018
267.23	-0.018
267.44	-0.019
267.65	-0.018
267.87	-0.018
268.08	-0.019
268.29	-0.019
268.50	-0.019
268.72	-0.019
268.93	-0.019
269.14	-0.019
269.35	-0.019
269.57	-0.019
269.78	-0.019
269.99	-0.019
270.20	-0.018
270.41	-0.019
270.63	-0.019
270.84	-0.019
271.05	-0.019
271.26	-0.018
271.48	-0.018
271.69	-0.018
271.90	-0.019
272.11	-0.018
272.32	-0.018
272.54	-0.019
272.75	-0.019
272.96	-0.019
273.17	-0.019
273.39	-0.019
273.60	-0.019
273.81	-0.019
274.02	-0.019
274.23	-0.019
274.45	-0.020
274.66	-0.020
274.87	-0.020
275.08	-0.019
275.29	-0.020
275.51	-0.019
275.72	-0.019
275.93	-0.019
276.14	-0.019
276.35	-0.019
276.57	-0.019
276.78	-0.019
276.99	-0.019
277.20	-0.019
277.41	-0.019
277.63	-0.018
277.84	-0.018
278.05	-0.018
278.26	-0.018
278.47	-0.018
278.69	-0.019
278.90	-0.018
279.11	-0.018
279.32	-0.018
279.53	-0.018
279.74	-0.018
279.96	-0.019
280.17	-0.019
280.38	-0.019
280.59	-0.019
280.80	-0.019
281.02	-0.019
281.23	-0.019
281.44	-0.019
281.65	-0.019
281.86	-0.019
282.07	-0.019
282.29	-0.019
282.50	-0.019
282.71	-0.019
282.92	-0.019
283.13	-0.019
283.35	-0.019
283.56	-0.019
283.77	-0.019
283.98	-0.019
284.19	-0.019
284.40	-0.019
284.62	-0.019
284.83	-0.018
285.04	-0.018
285.25	-0.018
285.46	-0.018
285.67	-0.018
285.88	-0.018
286.10	-0.017
286.31	-0.017
286.52	-0.017
286.73	-0.017
286.94	-0.017
287.15	-0.017
287.37	-0.017
287.58	-0.017
287.79	-0.017
288.00	-0.017
288.21	-0.017
288.42	-0.017
288.63	-0.016
288.85	-0.017
289.06	-0.017
289.27	-0.017
289.48	-0.017
289.69	-0.016
289.90	-0.016
290.11	-0.016
290.33	-0.016
290.54	-0.016
290.75	-0.016
290.96	-0.016
291.17	-0.016
291.38	-0.016
291.59	-0.016
291.81	-0.016
292.02	-0.016
292.23	-0.016
292.44	-0.016
292.65	-0.016
292.86	-0.016
293.07	-0.016
293.28	-0.016
293.50	-0.016
293.71	-0.016
293.92	-0.016
294.13	-0.016
294.34	-0.016
294.55	-0.016
294.76	-0.016
294.97	-0.016
295.19	-0.016
295.40	-0.016
295.61	-0.015
295.82	-0.015
296.03	-0.015
296.24	-0.015
296.45	-0.015
296.66	-0.015
296.87	-0.015
297.09	-0.015
297.30	-0.015
297.51	-0.015
297.72	-0.015
297.93	-0.015
298.14	-0.015
298.35	-0.015
298.56	-0.015
298.77	-0.015
298.99	-0.015
299.20	-0.015
299.41	-0.015
299.62	-0.015
299.83	-0.015
300.04	-0.015
300.25	-0.015
300.46	-0.015
300.67	-0.015
300.88	-0.015
301.10	-0.015
301.31	-0.015
301.52	-0.015
301.73	-0.015
301.94	-0.015
302.15	-0.015
302.36	-0.015
302.57	-0.015
302.78	-0.015
302.99	-0.015
303.20	-0.015
303.41	-0.015
303.63	-0.015
303.84	-0.015
304.05	-0.015
304.26	-0.015
304.47	-0.015
304.68	-0.015
304.89	-0.015
305.10	-0.015
305.31	-0.015
305.52	-0.015
305.73	-0.014
305.94	-0.014
306.15	-0.014
306.37	-0.014
306.58	-0.014
306.79	-0.014
307.00	-0.014
307.21	-0.014
307.42	-0.014
307.63	-0.014
307.84	-0.014
308.05	-0.015
308.26	-0.015
308.47	-0.015
308.68	-0.015
308.89	-0.014
309.10	-0.014
309.31	-0.014
309.52	-0.014
309.73	-0.014
309.95	-0.014
310.16	-0.014
310.37	-0.014
310.58	-0.014
310.79	-0.014
311.00	-0.014
311.21	-0.014
311.42	-0.015
311.63	-0.014
311.84	-0.014
312.05	-0.014
312.26	-0.014
312.47	-0.015
312.68	-0.015
312.89	-0.014
313.10	-0.014
313.31	-0.014
313.52	-0.014
313.73	-0.014
313.94	-0.014
314.15	-0.014
314.36	-0.014
314.57	-0.014
314.78	-0.014
314.99	-0.014
315.21	-0.014
315.42	-0.014
315.63	-0.014
315.84	-0.014
316.05	-0.014
316.26	-0.014
316.47	-0.014
316.68	-0.014
316.89	-0.014
317.10	-0.014
317.31	-0.014
317.52	-0.014
317.73	-0.014
317.94	-0.014
318.15	-0.014
318.36	-0.014
318.57	-0.014
318.78	-0.014
318.99	-0.014
319.20	-0.014
319.41	-0.014
319.62	-0.014
319.83	-0.014
320.04	-0.014
320.25	-0.014
320.46	-0.014
320.67	-0.014
320.88	-0.014
321.09	-0.014
321.30	-0.014
321.51	-0.014
321.72	-0.014
321.93	-0.014
322.14	-0.014
322.35	-0.014
322.56	-0.014
322.77	-0.014
322.98	-0.014
323.19	-0.014
323.40	-0.014
323.61	-0.014
323.82	-0.014
324.03	-0.014
324.24	-0.014
324.45	-0.014
324.66	-0.014
324.87	-0.014
325.08	-0.014
325.29	-0.014
325.50	-0.014
325.71	-0.014
325.92	-0.014
326.13	-0.014
326.34	-0.014
326.55	-0.014
326.76	-0.014
326.97	-0.014
327.18	-0.014
327.39	-0.014
327.60	-0.014
327.80	-0.014
328.01	-0.014
328.22	-0.014
328.43	-0.014
328.64	-0.014
328.85	-0.014
329.06	-0.014
329.27	-0.014
329.48	-0.014
329.69	-0.014
329.90	-0.014
330.11	-0.014
330.32	-0.014
330.53	-0.014
330.74	-0.014
330.95	-0.014
331.16	-0.014
331.37	-0.014
331.58	-0.014
331.79	-0.014
332.00	-0.014
332.21	-0.014
332.42	-0.014
332.63	-0.014
332.83	-0.014
333.04	-0.014
333.25	-0.014
333.46	-0.014
333.67	-0.014
333.88	-0.014
334.09	-0.014
334.30	-0.014
334.51	-0.014
334.72	-0.014
334.93	-0.014
335.14	-0.014
335.35	-0.014
335.56	-0.014
335.77	-0.014
335.98	-0.014
336.18	-0.014
336.39	-0.014
336.60	-0.014
336.81	-0.014
337.02	-0.014
337.23	-0.014
337.44	-0.014
337.65	-0.014
337.86	-0.014
338.07	-0.014
338.28	-0.014
338.49	-0.014
338.70	-0.014
338.91	-0.014
339.11	-0.014
339.32	-0.014
339.53	-0.014
339.74	-0.014
339.95	-0.014
340.16	-0.014
340.37	-0.014
340.58	-0.014
340.79	-0.014
341.00	-0.014
341.21	-0.014
341.41	-0.014
341.62	-0.014
341.83	-0.014
342.04	-0.014
342.25	-0.014
342.46	-0.014
342.67	-0.014
342.88	-0.014
343.09	-0.014
343.30	-0.014
343.50	-0.014
343.71	-0.014
343.92	-0.014
344.13	-0.014
344.34	-0.014
344.55	-0.014
344.76	-0.014
344.97	-0.014
345.18	-0.014
345.38	-0.014
345.59	-0.014
345.80	-0.014
346.01	-0.014
346.22	-0.014
346.43	-0.014
346.64	-0.014
346.85	-0.014
347.06	-0.014
347.26	-0.014
347.47	-0.014
347.68	-0.014
347.89	-0.014
348.10	-0.014
348.31	-0.014
348.52	-0.014
348.73	-0.014
348.93	-0.014
349.14	-0.013
349.35	-0.013
349.56	-0.013
349.77	-0.013
349.98	-0.013
350.19	-0.013
350.39	-0.013
350.60	-0.013
350.81	-0.012
351.02	-0.012
351.23	-0.012
351.44	-0.012
351.65	-0.012
351.86	-0.012
352.06	-0.012
352.27	-0.011
352.48	-0.011
352.69	-0.011
352.90	-0.011
353.11	-0.011
353.31	-0.011
353.52	-0.010
353.73	-0.010
353.94	-0.010
354.15	-0.010
354.36	-0.010
354.57	-0.010
354.77	-0.010
354.98	-0.010
355.19	-0.010
355.40	-0.010
355.61	-0.010
355.82	-0.010
356.02	-0.009
356.23	-0.009
356.44	-0.009
356.65	-0.009
356.86	-0.009
357.07	-0.008
357.27	-0.008
357.48	-0.008
357.69	-0.008
357.90	-0.008
358.11	-0.008
358.32	-0.008
358.52	-0.008
358.73	-0.008
358.94	-0.007
359.15	-0.007
359.36	-0.008
359.56	-0.008
359.77	-0.007
359.98	-0.007
360.19	-0.007
360.40	-0.007
360.61	-0.007
360.81	-0.007
361.02	-0.006
361.23	-0.006
361.44	-0.006
361.65	-0.006
361.85	-0.005
362.06	-0.005
362.27	-0.005
362.48	-0.005
362.69	-0.005
362.89	-0.005
363.10	-0.004
363.31	-0.004
363.52	-0.004
363.73	-0.004
363.93	-0.004
364.14	-0.004
364.35	-0.003
364.56	-0.003
364.77	-0.003
364.97	-0.002
365.18	-0.002
365.39	-0.002
365.60	-0.002
365.81	-0.001
366.01	-0.001
366.22	-0.001
366.43	-0.001
366.64	-0.001
366.84	-0.001
367.05	-0.000
367.26	-0.000
367.47	-0.000
367.68	-0.000
367.88	-0.000
368.09	-0.000
368.30	-0.000
368.51	-0.000
368.71	-0.000
368.92	-0.000
369.13	-0.000
369.34	-0.001
369.55	-0.001
369.75	-0.001
369.96	-0.001
370.17	-0.001
370.38	-0.001
370.58	-0.001
370.79	-0.002
371.00	-0.002
371.21	-0.002
371.41	-0.002
371.62	-0.003
371.83	-0.003
372.04	-0.003
372.24	-0.003
372.45	-0.003
372.66	-0.003
372.87	-0.003
373.07	-0.003
373.28	-0.003
373.49	-0.003
373.70	-0.003
373.90	-0.003
374.11	-0.003
374.32	-0.003
374.53	-0.003
374.73	-0.003
374.94	-0.003
375.15	-0.003
375.36	-0.003
375.56	-0.003
375.77	-0.003
375.98	-0.003
376.19	-0.002
376.39	-0.002
376.60	-0.002
376.81	-0.002
377.02	-0.002
377.22	-0.002
377.43	-0.001
377.64	-0.001
377.84	-0.001
378.05	-0.001
378.26	-0.001
378.47	-0.001
378.67	-0.000
378.88	-0.000
379.09	-0.000
379.30	-0.000
379.50	-0.000
379.71	-0.000
379.92	-0.000
380.12	-0.000
380.33	-0.000
380.54	-0.000
380.75	-0.000
380.95	-0.000
381.16	-0.001
381.37	-0.001
381.57	-0.001
381.78	-0.001
381.99	-0.001
382.20	-0.001
382.40	-0.002
382.61	-0.002
382.82	-0.002
383.02	-0.002
383.23	-0.003
383.44	-0.003
383.64	-0.003
383.85	-0.003
384.06	-0.003
384.27	-0.004
384.47	-0.004
384.68	-0.004
384.89	-0.004
385.09	-0.004
385.30	-0.004
385.51	-0.003
385.71	-0.004
385.92	-0.004
386.13	-0.003
386.33	-0.003
386.54	-0.003
386.75	-0.003
386.95	-0.003
387.16	-0.003
387.37	-0.003
387.58	-0.003
387.78	-0.003
387.99	-0.003
388.20	-0.002
388.40	-0.002
388.61	-0.002
388.82	-0.002
389.02	-0.002
389.23	-0.002
389.44	-0.002
389.64	-0.002
389.85	-0.002
390.06	-0.002
390.26	-0.002
390.47	-0.002
390.68	-0.001
390.88	-0.001
391.09	-0.001
391.30	-0.001
391.50	-0.001
391.71	-0.000
391.92	-0.000
392.12	-0.000
392.33	-0.000
392.53	0.000
392.74	0.000
392.95	0.000
393.15	0.000
393.36	0.000
393.57	0.000
393.77	0.000
393.98	0.000
394.19	-0.000
394.39	-0.000
394.60	-0.000
394.81	-0.000
395.01	-0.001
395.22	-0.001
395.43	-0.001
395.63	-0.001
395.84	-0.001
396.04	-0.001
396.25	-0.001
396.46	-0.001
396.66	-0.001
396.87	-0.001
397.08	-0.001
397.28	-0.000
397.49	-0.000
397.69	-0.000
397.90	-0.000
398.11	-0.000
398.31	0.000
398.52	0.000
398.73	0.000
398.93	0.000
399.14	0.000
399.34	0.000
399.55	0.000
399.76	0.000
399.96	0.000
400.17	-0.000
400.37	-0.000
400.58	-0.000
400.79	-0.000
400.99	-0.000
401.20	-0.000
401.41	-0.001
401.61	-0.001
401.82	-0.001
402.02	-0.002
402.23	-0.002
402.44	-0.002
402.64	-0.002
402.85	-0.003
403.05	-0.003
403.26	-0.003
403.47	-0.003
403.67	-0.003
403.88	-0.002
404.08	-0.002
404.29	-0.002
404.50	-0.002
404.70	-0.002
404.91	-0.001
405.11	-0.001
405.32	-0.001
405.52	-0.001
405.73	-0.001
405.94	-0.001
406.14	-0.001
406.35	-0.001
406.55	-0.001
406.76	-0.002
406.97	-0.002
407.17	-0.002
407.38	-0.002
407.58	-0.002
407.79	-0.002
407.99	-0.003
408.20	-0.003
408.41	-0.003
408.61	-0.003
408.82	-0.003
409.02	-0.003
409.23	-0.003
409.43	-0.003
409.64	-0.004
409.84	-0.004
410.05	-0.004
410.26	-0.004
410.46	-0.004
410.67	-0.004
410.87	-0.004
411.08	-0.003
411.28	-0.004
411.49	-0.004
411.69	-0.004
411.90	-0.004
412.11	-0.004
412.31	-0.004
412.52	-0.004
412.72	-0.003
412.93	-0.004
413.13	-0.004
413.34	-0.004
413.54	-0.004
413.75	-0.005
413.95	-0.004
414.16	-0.005
414.37	-0.005
414.57	-0.005
414.78	-0.005
414.98	-0.005
415.19	-0.006
415.39	-0.006
415.60	-0.006
415.80	-0.006
416.01	-0.007
416.21	-0.007
416.42	-0.008
416.62	-0.008
416.83	-0.009
417.03	-0.009
417.24	-0.010
417.44	-0.010
417.65	-0.010
417.86	-0.010
418.06	-0.010
418.27	-0.010
418.47	-0.010
418.68	-0.010
418.88	-0.009
419.09	-0.009
419.29	-0.008
419.50	-0.007
419.70	-0.007
419.91	-0.006
420.11	-0.005
420.32	-0.004
420.52	-0.003
420.73	-0.002
420.93	-0.002
421.14	-0.001
421.34	-0.001
421.55	-0.001
421.75	-0.000
421.96	-0.000
422.16	-0.000
422.37	-0.000
422.57	-0.000
422.78	-0.000
422.98	-0.000
423.19	-0.000
423.39	-0.000
423.60	-0.001
423.80	-0.001
424.01	-0.001
424.21	-0.002
424.42	-0.003
424.62	-0.003
424.83	-0.004
425.03	-0.005
425.23	-0.006
425.44	-0.007
425.64	-0.007
425.85	-0.007
426.05	-0.008
426.26	-0.009
426.46	-0.009
426.67	-0.009
426.87	-0.009
427.08	-0.010
427.28	-0.009
427.49	-0.008
427.69	-0.007
427.90	-0.006
428.10	-0.006
428.31	-0.005
428.51	-0.004
428.71	-0.003
428.92	-0.002
429.12	-0.001
429.33	-0.000
429.53	-0.000
429.74	-0.000
429.94	0.000
430.15	0.000
430.35	0.000
430.56	0.000
430.76	0.000
430.96	0.000
431.17	0.000
431.37	-0.000
431.58	-0.000
431.78	-0.000
431.99	-0.001
432.19	-0.001
432.40	-0.001
432.60	-0.002
432.80	-0.003
433.01	-0.003
433.21	-0.004
433.42	-0.005
433.62	-0.006
433.83	-0.007
434.03	-0.007
434.23	-0.007
434.44	-0.007
434.64	-0.007
434.85	-0.007
435.05	-0.007
435.26	-0.007
435.46	-0.007
435.66	-0.006
435.87	-0.005
436.07	-0.005
436.28	-0.005
436.48	-0.005
436.69	-0.005
436.89	-0.005
437.09	-0.004
437.30	-0.004
437.50	-0.004
437.71	-0.004
437.91	-0.005
438.11	-0.005
438.32	-0.005
438.52	-0.006
438.73	-0.006
438.93	-0.007
439.13	-0.008
439.34	-0.008
439.54	-0.008
439.75	-0.009
439.95	-0.009
440.15	-0.009
440.36	-0.009
440.56	-0.009
440.77	-0.010
440.97	-0.010
441.17	-0.009
441.38	-0.009
441.58	-0.009
441.79	-0.009
441.99	-0.009
442.19	-0.008
442.40	-0.008
442.60	-0.008
442.81	-0.007
443.01	-0.007
443.21	-0.007
443.42	-0.007
443.62	-0.006
443.82	-0.006
444.03	-0.006
444.23	-0.006
444.44	-0.007
444.64	-0.006
444.84	-0.006
445.05	-0.006
445.25	-0.006
445.45	-0.006
445.66	-0.006
445.86	-0.006
446.06	-0.006
446.27	-0.006
446.47	-0.007
446.68	-0.006
446.88	-0.007
447.08	-0.008
447.29	-0.008
447.49	-0.008
447.69	-0.009
447.90	-0.009
448.10	-0.009
448.30	-0.009
448.51	-0.010
448.71	-0.010
448.91	-0.011
449.12	-0.011
449.32	-0.011
449.52	-0.011
449.73	-0.011
