SpectraSuite Data File
++++++++++++++++++++++++++++++++++++
Date: Mon Jun 15 08:00:00 PDT 2015
User: introlabs
Dark Spectrum Present: Yes
Reference Spectrum Present: Yes
Number of Sampled Component Spectra: 1
Spectrometers: USB4H08886
Integration Time (usec): 44366 (USB4H08886)
Spectra Averaged: 20 (USB4H08886)
Boxcar Smoothing: 5 (USB4H08886)
Correct for Electrical Dark: Yes (USB4H08886)
Strobe/Lamp Enabled: No (USB4H08886)
Correct for Detector Non-linearity: Yes (USB4H08886)
Correct for Stray Light: Yes (USB4H08886)
Number of Pixels in Processed Spectrum: 3648
>>>>>Begin Processed Spectral Data<<<<<
178.14	0.734
178.36	0.734
178.57	0.734
178.79	-0.000
179.01	-1.055
179.22	0.257
179.44	-0.078
179.65	-0.000
179.87	-0.000
180.08	0.962
180.30	0.486
180.52	0.376
180.73	0.069
180.95	0.018
181.16	0.009
181.38	-0.016
181.59	-0.023
181.81	-0.015
182.03	-0.010
182.24	-0.004
182.46	0.003
182.67	0.003
182.89	0.007
183.10	0.018
183.32	0.011
183.54	0.003
183.75	0.014
183.97	0.019
184.18	0.012
184.40	0.013
184.61	0.012
184.83	0.003
185.04	0.001
185.26	0.003
185.48	0.001
185.69	0.011
185.91	0.015
186.12	0.004
186.34	0.006
186.55	0.001
186.77	0.000
186.98	-0.001
187.20	-0.003
187.42	0.010
187.63	0.006
187.85	0.005
188.06	0.003
188.28	0.004
188.49	0.014
188.71	0.009
188.92	0.018
189.14	0.016
189.36	0.029
189.57	0.033
189.79	0.021
190.00	0.017
190.22	0.016
190.43	0.016
190.65	0.010
190.86	0.009
191.08	0.011
191.29	0.008
191.51	0.010
191.72	-0.001
191.94	-0.002
192.16	0.003
192.37	0.006
192.59	0.008
192.80	0.002
193.02	0.009
193.23	0.013
193.45	0.004
193.66	0.002
193.88	0.001
194.09	0.000
194.31	0.005
194.52	-0.002
194.74	-0.005
194.95	-0.010
195.17	-0.009
195.38	-0.009
195.60	-0.025
195.81	-0.012
196.03	-0.008
196.25	-0.003
196.46	-0.010
196.68	-0.013
196.89	-0.008
197.11	-0.006
197.32	-0.005
197.54	-0.004
197.75	0.003
197.97	0.007
198.18	-0.004
198.40	-0.005
198.61	-0.016
198.83	-0.014
199.04	-0.014
199.26	-0.023
199.47	-0.025
199.69	-0.017
199.90	-0.001
200.12	-0.008
200.33	-0.009
200.55	-0.012
200.76	-0.020
200.98	-0.019
201.19	-0.018
201.41	-0.027
201.62	-0.015
201.84	-0.007
202.05	-0.005
202.27	-0.011
202.48	-0.012
202.70	-0.011
202.91	0.003
203.13	0.005
203.34	0.004
203.56	0.009
203.77	0.014
203.99	0.002
204.20	-0.007
204.42	-0.018
204.63	-0.024
204.85	-0.026
205.06	-0.022
205.28	-0.021
205.49	-0.014
205.71	-0.005
205.92	0.001
206.14	0.003
206.35	0.012
206.56	0.022
206.78	0.027
206.99	0.037
207.21	0.046
207.42	0.043
207.64	0.036
207.85	0.039
208.07	0.035
208.28	0.032
208.50	0.034
208.71	0.025
208.93	0.019
209.14	0.019
209.36	0.016
209.57	0.015
209.79	0.019
210.00	0.022
210.22	0.026
210.43	0.025
210.64	0.018
210.86	0.012
211.07	0.017
211.29	0.014
211.50	0.011
211.72	0.001
211.93	-0.001
212.15	-0.003
212.36	-0.008
212.58	-0.015
212.79	-0.017
213.01	-0.020
213.22	-0.018
213.43	-0.015
213.65	-0.004
213.86	-0.005
214.08	-0.000
214.29	-0.002
214.51	-0.007
214.72	-0.007
214.94	-0.008
215.15	-0.001
215.36	-0.001
215.58	-0.004
215.79	-0.004
216.01	-0.004
216.22	0.001
216.44	-0.000
216.65	-0.002
216.87	0.009
217.08	0.012
217.29	0.014
217.51	0.009
217.72	0.015
217.94	0.021
218.15	0.029
218.37	0.021
218.58	0.018
218.80	0.025
219.01	0.019
219.22	0.012
219.44	0.009
219.65	0.009
219.87	0.006
220.08	0.001
220.30	-0.006
220.51	-0.012
220.72	-0.011
220.94	-0.016
221.15	-0.019
221.37	-0.011
221.58	-0.008
221.79	-0.006
222.01	-0.018
222.22	-0.019
222.44	-0.015
222.65	-0.015
222.87	-0.019
223.08	-0.018
223.29	-0.014
223.51	-0.019
223.72	-0.021
223.94	-0.025
224.15	-0.024
224.36	-0.013
224.58	-0.015
224.79	-0.012
225.01	-0.010
225.22	-0.007
225.44	-0.010
225.65	-0.009
225.86	-0.006
226.08	-0.008
226.29	-0.005
226.51	-0.004
226.72	-0.002
226.93	-0.001
227.15	-0.005
227.36	-0.007
227.58	-0.005
227.79	0.000
228.00	-0.006
228.22	-0.011
228.43	-0.013
228.65	-0.013
228.86	-0.013
229.07	-0.017
229.29	-0.019
229.50	-0.021
229.72	-0.022
229.93	-0.025
230.14	-0.027
230.36	-0.023
230.57	-0.021
230.78	-0.023
231.00	-0.027
231.21	-0.031
231.43	-0.028
231.64	-0.025
231.85	-0.024
232.07	-0.023
232.28	-0.025
232.50	-0.028
232.71	-0.030
232.92	-0.030
233.14	-0.028
233.35	-0.025
233.56	-0.025
233.78	-0.028
233.99	-0.031
234.21	-0.030
234.42	-0.029
234.63	-0.027
234.85	-0.025
235.06	-0.025
235.27	-0.025
235.49	-0.025
235.70	-0.026
235.91	-0.026
236.13	-0.024
236.34	-0.026
236.56	-0.028
236.77	-0.028
236.98	-0.029
237.20	-0.030
237.41	-0.030
237.62	-0.029
237.84	-0.029
238.05	-0.029
238.26	-0.030
238.48	-0.030
238.69	-0.028
238.91	-0.027
239.12	-0.027
239.33	-0.027
239.55	-0.026
239.76	-0.026
239.97	-0.025
240.19	-0.025
240.40	-0.024
240.61	-0.023
240.83	-0.023
241.04	-0.022
241.25	-0.022
241.47	-0.021
241.68	-0.019
241.89	-0.019
242.11	-0.020
242.32	-0.020
242.53	-0.020
242.75	-0.019
242.96	-0.019
243.17	-0.018
243.39	-0.017
243.60	-0.017
243.81	-0.018
244.03	-0.018
244.24	-0.018
244.45	-0.017
244.67	-0.016
244.88	-0.016
245.09	-0.015
245.31	-0.015
245.52	-0.015
245.73	-0.015
245.95	-0.015
246.16	-0.014
246.37	-0.013
246.59	-0.013
246.80	-0.013
247.01	-0.012
247.23	-0.012
247.44	-0.012
247.65	-0.012
247.87	-0.011
248.08	-0.012
248.29	-0.011
248.51	-0.012
248.72	-0.011
248.93	-0.012
249.15	-0.011
249.36	-0.011
249.57	-0.012
249.78	-0.012
250.00	-0.012
250.21	-0.012
250.42	-0.011
250.64	-0.011
250.85	-0.010
251.06	-0.011
251.28	-0.010
251.49	-0.010
251.70	-0.011
251.92	-0.010
252.13	-0.009
252.34	-0.009
252.55	-0.009
252.77	-0.009
252.98	-0.009
253.19	-0.009
253.41	-0.009
253.62	-0.008
253.83	-0.008
254.05	-0.008
254.26	-0.008
254.47	-0.008
254.68	-0.008
254.90	-0.008
255.11	-0.007
255.32	-0.007
255.54	-0.007
255.75	-0.007
255.96	-0.007
256.17	-0.008
256.39	-0.008
256.60	-0.007
256.81	-0.007
257.03	-0.007
257.24	-0.007
257.45	-0.007
257.66	-0.008
257.88	-0.008
258.09	-0.007
258.30	-0.007
258.51	-0.007
258.73	-0.007
258.94	-0.007
259.15	-0.008
259.37	-0.008
259.58	-0.008
259.79	-0.008
260.00	-0.008
260.22	-0.007
260.43	-0.007
260.64	-0.007
260.85	-0.007
261.07	-0.007
261.28	-0.007
261.49	-0.007
261.71	-0.007
261.92	-0.007
262.13	-0.007
262.34	-0.007
262.56	-0.007
262.77	-0.007
262.98	-0.007
263.19	-0.007
263.41	-0.007
263.62	-0.007
263.83	-0.007
264.04	-0.008
264.26	-0.008
264.47	-0.008
264.68	-0.008
264.89	-0.008
265.11	-0.008
265.32	-0.008
265.53	-0.008
265.74	-0.008
265.96	-0.008
266.17	-0.008
266.38	-0.008
266.59	-0.008
266.81	-0.008
267.02	-0.008
267.23	-0.009
267.44	-0.009
267.65	-0.009
267.87	-0.010
268.08	-0.010
268.29	-0.010
268.50	-0.010
268.72	-0.010
268.93	-0.010
269.14	-0.010
269.35	-0.010
269.57	-0.010
269.78	-0.010
269.99	-0.010
270.20	-0.010
270.41	-0.010
270.63	-0.010
270.84	-0.011
271.05	-0.011
271.26	-0.011
271.48	-0.011
271.69	-0.011
271.90	-0.011
272.11	-0.011
272.32	-0.011
272.54	-0.011
272.75	-0.011
272.96	-0.011
273.17	-0.011
273.39	-0.011
273.60	-0.011
273.81	-0.011
274.02	-0.011
274.23	-0.011
274.45	-0.011
274.66	-0.011
274.87	-0.011
275.08	-0.012
275.29	-0.012
275.51	-0.012
275.72	-0.012
275.93	-0.012
276.14	-0.012
276.35	-0.011
276.57	-0.012
276.78	-0.012
276.99	-0.012
277.20	-0.012
277.41	-0.012
277.63	-0.012
277.84	-0.011
278.05	-0.011
278.26	-0.011
278.47	-0.012
278.69	-0.012
278.90	-0.011
279.11	-0.011
279.32	-0.011
279.53	-0.011
279.74	-0.011
279.96	-0.011
280.17	-0.011
280.38	-0.010
280.59	-0.010
280.80	-0.010
281.02	-0.010
281.23	-0.010
281.44	-0.010
281.65	-0.010
281.86	-0.010
282.07	-0.010
282.29	-0.009
282.50	-0.009
282.71	-0.009
282.92	-0.009
283.13	-0.009
283.35	-0.009
283.56	-0.009
283.77	-0.009
283.98	-0.009
284.19	-0.009
284.40	-0.008
284.62	-0.008
284.83	-0.008
285.04	-0.008
285.25	-0.008
285.46	-0.007
285.67	-0.007
285.88	-0.006
286.10	-0.006
286.31	-0.006
286.52	-0.005
286.73	-0.005
286.94	-0.005
287.15	-0.004
287.37	-0.004
287.58	-0.003
287.79	-0.003
288.00	-0.003
288.21	-0.003
288.42	-0.003
288.63	-0.002
288.85	-0.002
289.06	-0.002
289.27	-0.002
289.48	-0.001
289.69	-0.001
289.90	-0.001
290.11	-0.001
290.33	-0.000
290.54	-0.000
290.75	0.000
290.96	0.000
291.17	0.001
291.38	0.001
291.59	0.001
291.81	0.001
292.02	0.001
292.23	0.001
292.44	0.001
292.65	0.001
292.86	0.001
293.07	0.002
293.28	0.002
293.50	0.002
293.71	0.002
293.92	0.002
294.13	0.002
294.34	0.002
294.55	0.002
294.76	0.002
294.97	0.002
295.19	0.002
295.40	0.002
295.61	0.002
295.82	0.003
296.03	0.002
296.24	0.003
296.45	0.002
296.66	0.002
296.87	0.003
297.09	0.003
297.30	0.003
297.51	0.003
297.72	0.003
297.93	0.003
298.14	0.003
298.35	0.003
298.56	0.003
298.77	0.003
298.99	0.003
299.20	0.003
299.41	0.003
299.62	0.003
299.83	0.003
300.04	0.003
300.25	0.003
300.46	0.003
300.67	0.003
300.88	0.004
301.10	0.003
301.31	0.003
301.52	0.003
301.73	0.003
301.94	0.003
302.15	0.003
302.36	0.003
302.57	0.003
302.78	0.003
302.99	0.003
303.20	0.003
303.41	0.003
303.63	0.003
303.84	0.003
304.05	0.003
304.26	0.003
304.47	0.003
304.68	0.003
304.89	0.004
305.10	0.004
305.31	0.004
305.52	0.004
305.73	0.004
305.94	0.004
306.15	0.004
306.37	0.004
306.58	0.004
306.79	0.004
307.00	0.004
307.21	0.004
307.42	0.004
307.63	0.004
307.84	0.004
308.05	0.004
308.26	0.004
308.47	0.004
308.68	0.004
308.89	0.004
309.10	0.004
309.31	0.004
309.52	0.004
309.73	0.004
309.95	0.004
310.16	0.004
310.37	0.004
310.58	0.004
310.79	0.004
311.00	0.004
311.21	0.004
311.42	0.004
311.63	0.004
311.84	0.004
312.05	0.004
312.26	0.004
312.47	0.004
312.68	0.004
312.89	0.004
313.10	0.004
313.31	0.004
313.52	0.004
313.73	0.004
313.94	0.004
314.15	0.004
314.36	0.005
314.57	0.005
314.78	0.005
314.99	0.005
315.21	0.005
315.42	0.005
315.63	0.005
315.84	0.005
316.05	0.005
316.26	0.005
316.47	0.005
316.68	0.005
316.89	0.005
317.10	0.005
317.31	0.005
317.52	0.005
317.73	0.005
317.94	0.005
318.15	0.005
318.36	0.005
318.57	0.005
318.78	0.005
318.99	0.005
319.20	0.005
319.41	0.005
319.62	0.005
319.83	0.005
320.04	0.005
320.25	0.005
320.46	0.005
320.67	0.005
320.88	0.005
321.09	0.005
321.30	0.005
321.51	0.005
321.72	0.005
321.93	0.005
322.14	0.005
322.35	0.005
322.56	0.005
322.77	0.005
322.98	0.005
323.19	0.005
323.40	0.005
323.61	0.005
323.82	0.005
324.03	0.005
324.24	0.005
324.45	0.005
324.66	0.005
324.87	0.005
325.08	0.005
325.29	0.005
325.50	0.005
325.71	0.005
325.92	0.005
326.13	0.005
326.34	0.005
326.55	0.005
326.76	0.005
326.97	0.005
327.18	0.005
327.39	0.005
327.60	0.005
327.80	0.005
328.01	0.005
328.22	0.005
328.43	0.005
328.64	0.005
328.85	0.005
329.06	0.005
329.27	0.005
329.48	0.005
329.69	0.005
329.90	0.005
330.11	0.005
330.32	0.005
330.53	0.005
330.74	0.005
330.95	0.005
331.16	0.005
331.37	0.005
331.58	0.005
331.79	0.005
332.00	0.005
332.21	0.005
332.42	0.005
332.63	0.005
332.83	0.005
333.04	0.005
333.25	0.005
333.46	0.005
333.67	0.005
333.88	0.005
334.09	0.005
334.30	0.005
334.51	0.005
334.72	0.005
334.93	0.005
335.14	0.005
335.35	0.005
335.56	0.005
335.77	0.005
335.98	0.004
336.18	0.004
336.39	0.004
336.60	0.005
336.81	0.004
337.02	0.004
337.23	0.004
337.44	0.004
337.65	0.004
337.86	0.004
338.07	0.004
338.28	0.004
338.49	0.004
338.70	0.004
338.91	0.004
339.11	0.004
339.32	0.004
339.53	0.004
339.74	0.004
339.95	0.004
340.16	0.004
340.37	0.004
340.58	0.004
340.79	0.004
341.00	0.004
341.21	0.004
341.41	0.004
341.62	0.004
341.83	0.003
342.04	0.003
342.25	0.003
342.46	0.003
342.67	0.003
342.88	0.003
343.09	0.004
343.30	0.003
343.50	0.003
343.71	0.003
343.92	0.004
344.13	0.004
344.34	0.004
344.55	0.004
344.76	0.004
344.97	0.004
345.18	0.003
345.38	0.003
345.59	0.003
345.80	0.003
346.01	0.003
346.22	0.003
346.43	0.003
346.64	0.003
346.85	0.003
347.06	0.003
347.26	0.003
347.47	0.003
347.68	0.003
347.89	0.003
348.10	0.003
348.31	0.003
348.52	0.003
348.73	0.002
348.93	0.003
349.14	0.002
349.35	0.002
349.56	0.002
349.77	0.002
349.98	0.002
350.19	0.002
350.39	0.002
350.60	0.002
350.81	0.002
351.02	0.002
351.23	0.002
351.44	0.002
351.65	0.002
351.86	0.002
352.06	0.002
352.27	0.002
352.48	0.003
352.69	0.003
352.90	0.002
353.11	0.003
353.31	0.003
353.52	0.003
353.73	0.003
353.94	0.002
354.15	0.002
354.36	0.002
354.57	0.002
354.77	0.002
354.98	0.002
355.19	0.002
355.40	0.002
355.61	0.002
355.82	0.002
356.02	0.002
356.23	0.002
356.44	0.002
356.65	0.003
356.86	0.003
357.07	0.002
357.27	0.002
357.48	0.002
357.69	0.002
357.90	0.002
358.11	0.002
358.32	0.002
358.52	0.002
358.73	0.002
358.94	0.002
359.15	0.002
359.36	0.002
359.56	0.002
359.77	0.002
359.98	0.002
360.19	0.002
360.40	0.002
360.61	0.002
360.81	0.002
361.02	0.002
361.23	0.002
361.44	0.002
361.65	0.002
361.85	0.002
362.06	0.002
362.27	0.002
362.48	0.002
362.69	0.002
362.89	0.002
363.10	0.002
363.31	0.002
363.52	0.002
363.73	0.002
363.93	0.002
364.14	0.002
364.35	0.002
364.56	0.002
364.77	0.002
364.97	0.002
365.18	0.002
365.39	0.002
365.60	0.002
365.81	0.002
366.01	0.001
366.22	0.001
366.43	0.001
366.64	0.001
366.84	0.002
367.05	0.002
367.26	0.002
367.47	0.002
367.68	0.002
367.88	0.002
368.09	0.002
368.30	0.002
368.51	0.002
368.71	0.002
368.92	0.002
369.13	0.002
369.34	0.002
369.55	0.002
369.75	0.002
369.96	0.002
370.17	0.002
370.38	0.002
370.58	0.002
370.79	0.002
371.00	0.002
371.21	0.002
371.41	0.002
371.62	0.002
371.83	0.002
372.04	0.002
372.24	0.002
372.45	0.002
372.66	0.002
372.87	0.002
373.07	0.002
373.28	0.002
373.49	0.002
373.70	0.002
373.90	0.002
374.11	0.002
374.32	0.002
374.53	0.001
374.73	0.001
374.94	0.001
375.15	0.001
375.36	0.001
375.56	0.001
375.77	0.001
375.98	0.002
376.19	0.001
376.39	0.001
376.60	0.001
376.81	0.001
377.02	0.002
377.22	0.002
377.43	0.002
377.64	0.001
377.84	0.001
378.05	0.001
378.26	0.001
378.47	0.001
378.67	0.001
378.88	0.001
379.09	0.001
379.30	0.001
379.50	0.001
379.71	0.001
379.92	0.001
380.12	0.001
380.33	0.001
380.54	0.001
380.75	0.001
380.95	0.001
381.16	0.001
381.37	0.001
381.57	0.001
381.78	0.001
381.99	0.001
382.20	0.001
382.40	0.002
382.61	0.002
382.82	0.002
383.02	0.002
383.23	0.002
383.44	0.002
383.64	0.002
383.85	0.002
384.06	0.002
384.27	0.002
384.47	0.001
384.68	0.001
384.89	0.001
385.09	0.001
385.30	0.001
385.51	0.001
385.71	0.001
385.92	0.001
386.13	0.001
386.33	0.001
386.54	0.001
386.75	0.001
386.95	0.001
387.16	0.001
387.37	0.001
387.58	0.001
387.78	0.001
387.99	0.001
388.20	0.001
388.40	0.001
388.61	0.001
388.82	0.001
389.02	0.001
389.23	0.001
389.44	0.001
389.64	0.001
389.85	0.001
390.06	0.001
390.26	0.001
390.47	0.001
390.68	0.001
390.88	0.001
391.09	0.001
391.30	0.001
391.50	0.001
391.71	0.001
391.92	0.001
392.12	0.001
392.33	0.001
392.53	0.001
392.74	0.001
392.95	0.001
393.15	0.001
393.36	0.001
393.57	0.001
393.77	0.001
393.98	0.001
394.19	0.001
394.39	0.001
394.60	0.001
394.81	0.001
395.01	0.001
395.22	0.001
395.43	0.001
395.63	0.001
395.84	0.001
396.04	0.001
396.25	0.001
396.46	0.001
396.66	0.001
396.87	0.001
397.08	0.001
397.28	0.001
397.49	0.001
397.69	0.001
397.90	0.001
398.11	0.001
398.31	0.001
398.52	0.001
398.73	0.001
398.93	0.001
399.14	0.001
399.34	0.001
399.55	0.001
399.76	0.001
399.96	0.001
400.17	0.001
400.37	0.001
400.58	0.001
400.79	0.001
400.99	0.001
401.20	0.001
401.41	0.001
401.61	0.001
401.82	0.001
402.02	0.001
402.23	0.001
402.44	0.001
402.64	0.001
402.85	0.001
403.05	0.001
403.26	0.001
403.47	0.001
403.67	0.001
403.88	0.001
404.08	0.001
404.29	0.000
404.50	0.001
404.70	0.001
404.91	0.001
405.11	0.001
405.32	0.001
405.52	0.000
405.73	0.000
405.94	0.000
406.14	0.000
406.35	0.000
406.55	0.001
406.76	0.001
406.97	0.001
407.17	0.001
407.38	0.001
407.58	0.001
407.79	0.001
407.99	0.001
408.20	0.001
408.41	0.001
408.61	0.000
408.82	0.001
409.02	0.001
409.23	0.001
409.43	0.001
409.64	0.001
409.84	0.001
410.05	0.001
410.26	0.001
410.46	0.001
410.67	0.001
410.87	0.001
411.08	0.001
411.28	0.001
411.49	0.001
411.69	0.001
411.90	0.001
412.11	0.001
412.31	0.001
412.52	0.001
412.72	0.001
412.93	0.001
413.13	0.001
413.34	0.001
413.54	0.001
413.75	0.001
413.95	0.001
414.16	0.001
414.37	0.001
414.57	0.001
414.78	0.001
414.98	0.001
415.19	0.001
415.39	0.001
415.60	0.001
415.80	0.001
416.01	0.001
416.21	0.001
416.42	0.001
416.62	0.001
416.83	0.001
417.03	0.000
417.24	0.000
417.44	0.000
417.65	0.000
417.86	0.000
418.06	0.000
418.27	0.000
418.47	0.000
418.68	0.000
418.88	0.000
419.09	-0.000
419.29	0.000
419.50	0.000
419.70	0.000
419.91	0.000
420.11	0.000
420.32	0.000
420.52	0.000
420.73	0.000
420.93	0.000
421.14	0.000
421.34	0.000
421.55	0.000
421.75	0.000
421.96	0.000
422.16	0.000
422.37	-0.000
422.57	-0.000
422.78	-0.000
422.98	-0.000
423.19	0.000
423.39	0.000
423.60	-0.000
423.80	-0.000
424.01	0.000
424.21	0.000
424.42	0.000
424.62	0.000
424.83	0.000
425.03	0.000
425.23	0.000
425.44	0.000
425.64	0.000
425.85	0.000
426.05	0.000
426.26	0.000
426.46	0.000
426.67	0.000
426.87	0.000
427.08	0.000
427.28	0.000
427.49	0.000
427.69	-0.000
427.90	-0.000
428.10	0.000
428.31	0.000
428.51	-0.000
428.71	-0.000
428.92	-0.000
429.12	0.000
429.33	0.000
429.53	0.000
429.74	0.000
429.94	0.000
430.15	0.000
430.35	0.000
430.56	0.000
430.76	0.000
430.96	0.000
431.17	0.000
431.37	0.000
431.58	0.000
431.78	0.000
431.99	0.000
432.19	0.000
432.40	0.000
432.60	0.000
432.80	0.000
433.01	0.000
433.21	0.000
433.42	0.000
433.62	0.000
433.83	0.000
434.03	0.001
434.23	0.001
434.44	0.001
434.64	0.001
434.85	0.001
435.05	0.000
435.26	0.000
435.46	0.000
435.66	0.000
435.87	0.000
436.07	0.000
436.28	0.000
436.48	-0.000
436.69	-0.000
436.89	-0.000
437.09	-0.000
437.30	-0.000
437.50	-0.000
437.71	-0.000
437.91	-0.000
438.11	-0.000
438.32	-0.000
438.52	0.000
438.73	0.000
438.93	0.000
439.13	0.000
439.34	0.000
439.54	0.000
439.75	0.000
439.95	0.000
440.15	0.000
440.36	0.000
440.56	0.000
440.77	0.000
440.97	0.000
441.17	0.000
441.38	0.000
441.58	0.000
441.79	0.000
441.99	0.000
442.19	0.000
442.40	0.000
442.60	-0.000
442.81	-0.000
443.01	-0.000
443.21	-0.000
443.42	-0.000
443.62	-0.000
443.82	0.000
444.03	-0.000
444.23	-0.000
444.44	0.000
444.64	0.000
444.84	0.000
445.05	0.000
445.25	0.000
445.45	0.000
445.66	0.000
445.86	0.000
446.06	0.000
446.27	0.000
446.47	0.000
446.68	0.000
446.88	0.000
447.08	0.000
447.29	0.000
447.49	0.000
447.69	0.000
447.90	0.000
448.10	0.000
448.30	0.000
448.51	0.000
448.71	0.000
448.91	0.000
449.12	0.000
449.32	0.000
449.52	0.000
449.73	0.000
449.93	0.000
450.14	0.000
450.34	0.000
450.54	0.000
450.75	0.000
450.95	0.000
451.15	0.000
451.36	-0.000
451.56	-0.000
451.76	-0.000
451.97	-0.000
452.17	-0.000
452.37	-0.000
452.58	-0.000
452.78	-0.000
452.98	-0.000
453.19	-0.000
453.39	-0.000
453.59	-0.000
453.79	-0.000
454.00	-0.000
454.20	-0.000
454.40	-0.000
454.61	-0.000
454.81	-0.000
455.01	-0.000
455.22	0.000
455.42	-0.000
455.62	0.000
455.83	0.000
456.03	0.000
456.23	0.000
456.44	0.000
456.64	0.000
456.84	0.000
457.04	0.000
457.25	0.000
457.45	0.000
457.65	0.000
457.86	0.000
458.06	0.000
458.26	0.000
458.47	0.000
458.67	0.000
458.87	0.000
459.07	0.000
459.28	-0.000
459.48	-0.000
459.68	-0.000
459.89	-0.000
460.09	-0.000
460.29	-0.000
460.49	-0.000
460.70	-0.000
460.90	0.000
461.10	0.000
