SpectraSuite Data File
++++++++++++++++++++++++++++++++++++
Date: Mon Jun 15 06:45:50 PDT 2015
User: introlabs
Dark Spectrum Present: Yes
Reference Spectrum Present: Yes
Number of Sampled Component Spectra: 1
Spectrometers: USB4H08886
Integration Time (usec): 44366 (USB4H08886)
Spectra Averaged: 20 (USB4H08886)
Boxcar Smoothing: 5 (USB4H08886)
Correct for Electrical Dark: Yes (USB4H08886)
Strobe/Lamp Enabled: No (USB4H08886)
Correct for Detector Non-linearity: Yes (USB4H08886)
Correct for Stray Light: Yes (USB4H08886)
Number of Pixels in Processed Spectrum: 3648
>>>>>Begin Processed Spectral Data<<<<<
178.14	-0.000
178.36	-0.000
178.57	-0.000
178.79	0.035
179.01	0.085
179.22	-0.000
179.44	-0.000
179.65	-0.000
179.87	-0.000
180.08	-0.000
180.30	1.257
180.52	0.997
180.73	0.861
180.95	0.265
181.16	0.112
181.38	0.063
181.59	0.031
181.81	0.021
182.03	0.020
182.24	0.009
182.46	0.008
182.67	0.003
182.89	0.001
183.10	-0.001
183.32	0.003
183.54	-0.002
183.75	-0.004
183.97	0.009
184.18	0.003
184.40	0.007
184.61	0.020
184.83	0.016
185.04	0.008
185.26	0.001
185.48	0.001
185.69	0.002
185.91	-0.010
186.12	-0.005
186.34	-0.023
186.55	-0.021
186.77	-0.019
186.98	-0.023
187.20	-0.011
187.42	-0.006
187.63	0.008
187.85	0.010
188.06	0.005
188.28	0.011
188.49	0.004
188.71	0.014
188.92	0.017
189.14	0.011
189.36	0.013
189.57	0.005
189.79	-0.003
190.00	-0.007
190.22	-0.007
190.43	-0.007
190.65	0.002
190.86	0.008
191.08	0.004
191.29	0.008
191.51	0.012
191.72	0.010
191.94	0.001
192.16	0.006
192.37	0.006
192.59	-0.002
192.80	-0.001
193.02	-0.011
193.23	-0.010
193.45	-0.011
193.66	-0.020
193.88	-0.033
194.09	-0.029
194.31	-0.024
194.52	-0.027
194.74	-0.018
194.95	-0.024
195.17	-0.022
195.38	-0.017
195.60	-0.025
195.81	-0.020
196.03	-0.015
196.25	-0.006
196.46	-0.008
196.68	-0.011
196.89	-0.006
197.11	-0.016
197.32	-0.000
197.54	-0.006
197.75	-0.004
197.97	-0.004
198.18	-0.012
198.40	-0.011
198.61	-0.001
198.83	-0.002
199.04	0.007
199.26	0.013
199.47	0.018
199.69	0.014
199.90	0.014
200.12	0.005
200.33	0.013
200.55	0.016
200.76	0.011
200.98	-0.001
201.19	-0.004
201.41	-0.005
201.62	-0.009
201.84	-0.020
202.05	-0.026
202.27	-0.018
202.48	-0.012
202.70	-0.018
202.91	-0.021
203.13	-0.020
203.34	-0.026
203.56	-0.026
203.77	-0.025
203.99	-0.026
204.20	-0.017
204.42	-0.012
204.63	-0.009
204.85	-0.008
205.06	-0.005
205.28	-0.002
205.49	0.003
205.71	0.020
205.92	0.026
206.14	0.025
206.35	0.024
206.56	0.022
206.78	0.024
206.99	0.020
207.21	0.015
207.42	0.015
207.64	0.014
207.85	0.011
208.07	0.007
208.28	-0.000
208.50	-0.008
208.71	-0.001
208.93	0.001
209.14	0.000
209.36	0.001
209.57	-0.004
209.79	0.001
210.00	-0.002
210.22	0.002
210.43	-0.002
210.64	-0.005
210.86	0.001
211.07	-0.010
211.29	-0.007
211.50	-0.005
211.72	-0.011
211.93	-0.004
212.15	-0.005
212.36	0.004
212.58	0.002
212.79	0.008
213.01	0.013
213.22	0.012
213.43	0.017
213.65	0.014
213.86	0.010
214.08	0.013
214.29	0.006
214.51	0.003
214.72	-0.003
214.94	0.001
215.15	-0.002
215.36	-0.005
215.58	-0.007
215.79	-0.007
216.01	-0.010
216.22	-0.011
216.44	-0.013
216.65	-0.008
216.87	-0.013
217.08	-0.015
217.29	-0.022
217.51	-0.029
217.72	-0.027
217.94	-0.018
218.15	-0.021
218.37	-0.023
218.58	-0.016
218.80	-0.021
219.01	-0.018
219.22	-0.014
219.44	-0.010
219.65	-0.010
219.87	0.002
220.08	0.003
220.30	-0.005
220.51	-0.003
220.72	-0.005
220.94	-0.013
221.15	-0.004
221.37	-0.007
221.58	-0.001
221.79	-0.008
222.01	-0.001
222.22	-0.009
222.44	-0.010
222.65	-0.012
222.87	-0.014
223.08	-0.009
223.29	-0.004
223.51	-0.008
223.72	-0.004
223.94	-0.011
224.15	-0.012
224.36	-0.018
224.58	-0.013
224.79	-0.014
225.01	-0.012
225.22	-0.007
225.44	-0.006
225.65	-0.010
225.86	-0.010
226.08	-0.011
226.29	-0.007
226.51	-0.005
226.72	-0.003
226.93	-0.004
227.15	-0.003
227.36	-0.002
227.58	-0.000
227.79	-0.004
228.00	-0.003
228.22	0.001
228.43	-0.002
228.65	-0.007
228.86	-0.009
229.07	-0.011
229.29	-0.009
229.50	-0.009
229.72	-0.010
229.93	-0.015
230.14	-0.014
230.36	-0.012
230.57	-0.012
230.78	-0.010
231.00	-0.006
231.21	-0.005
231.43	-0.003
231.64	-0.005
231.85	-0.005
232.07	-0.005
232.28	-0.005
232.50	-0.002
232.71	-0.001
232.92	-0.001
233.14	-0.002
233.35	-0.005
233.56	-0.003
233.78	-0.005
233.99	-0.006
234.21	-0.004
234.42	-0.001
234.63	-0.001
234.85	-0.003
235.06	-0.005
235.27	-0.004
235.49	-0.004
235.70	-0.002
235.91	-0.003
236.13	-0.002
236.34	-0.002
236.56	-0.002
236.77	-0.003
236.98	-0.001
237.20	-0.001
237.41	0.000
237.62	-0.001
237.84	-0.000
238.05	-0.000
238.26	0.000
238.48	0.001
238.69	0.002
238.91	0.001
239.12	0.001
239.33	-0.000
239.55	0.000
239.76	-0.000
239.97	0.000
240.19	0.001
240.40	0.001
240.61	0.002
240.83	0.003
241.04	0.003
241.25	0.003
241.47	0.003
241.68	0.004
241.89	0.004
242.11	0.005
242.32	0.005
242.53	0.005
242.75	0.006
242.96	0.006
243.17	0.006
243.39	0.007
243.60	0.007
243.81	0.007
244.03	0.007
244.24	0.007
244.45	0.007
244.67	0.007
244.88	0.006
245.09	0.006
245.31	0.006
245.52	0.005
245.73	0.004
245.95	0.005
246.16	0.005
246.37	0.005
246.59	0.004
246.80	0.004
247.01	0.004
247.23	0.004
247.44	0.004
247.65	0.004
247.87	0.004
248.08	0.005
248.29	0.004
248.51	0.005
248.72	0.005
248.93	0.005
249.15	0.005
249.36	0.006
249.57	0.006
249.78	0.006
250.00	0.006
250.21	0.006
250.42	0.006
250.64	0.005
250.85	0.005
251.06	0.005
251.28	0.005
251.49	0.005
251.70	0.005
251.92	0.004
252.13	0.004
252.34	0.005
252.55	0.005
252.77	0.004
252.98	0.004
253.19	0.005
253.41	0.004
253.62	0.004
253.83	0.004
254.05	0.004
254.26	0.004
254.47	0.004
254.68	0.004
254.90	0.004
255.11	0.004
255.32	0.004
255.54	0.004
255.75	0.004
255.96	0.005
256.17	0.005
256.39	0.004
256.60	0.004
256.81	0.005
257.03	0.004
257.24	0.004
257.45	0.004
257.66	0.004
257.88	0.004
258.09	0.004
258.30	0.004
258.51	0.004
258.73	0.004
258.94	0.004
259.15	0.004
259.37	0.004
259.58	0.004
259.79	0.004
260.00	0.004
260.22	0.004
260.43	0.004
260.64	0.004
260.85	0.004
261.07	0.003
261.28	0.003
261.49	0.003
261.71	0.003
261.92	0.003
262.13	0.003
262.34	0.002
262.56	0.002
262.77	0.002
262.98	0.001
263.19	0.001
263.41	0.001
263.62	0.001
263.83	0.001
264.04	0.001
264.26	0.001
264.47	0.001
264.68	0.001
264.89	0.001
265.11	0.001
265.32	0.001
265.53	0.001
265.74	0.001
265.96	0.001
266.17	0.001
266.38	0.000
266.59	0.000
266.81	0.000
267.02	0.000
267.23	0.000
267.44	0.001
267.65	0.001
267.87	0.001
268.08	0.001
268.29	0.001
268.50	0.001
268.72	0.001
268.93	0.002
269.14	0.002
269.35	0.001
269.57	0.001
269.78	0.001
269.99	0.001
270.20	0.001
270.41	0.001
270.63	0.000
270.84	0.000
271.05	-0.000
271.26	-0.001
271.48	-0.001
271.69	-0.001
271.90	-0.001
272.11	-0.001
272.32	-0.001
272.54	-0.001
272.75	-0.001
272.96	-0.001
273.17	-0.000
273.39	-0.000
273.60	0.000
273.81	0.000
274.02	0.000
274.23	0.000
274.45	0.001
274.66	0.001
274.87	0.001
275.08	0.000
275.29	0.000
275.51	0.000
275.72	0.000
275.93	-0.000
276.14	-0.000
276.35	-0.000
276.57	-0.000
276.78	-0.000
276.99	-0.001
277.20	-0.001
277.41	-0.001
277.63	-0.001
277.84	-0.001
278.05	-0.000
278.26	-0.001
278.47	-0.001
278.69	-0.001
278.90	-0.001
279.11	-0.001
279.32	-0.001
279.53	-0.001
279.74	-0.001
279.96	-0.001
280.17	-0.001
280.38	-0.001
280.59	-0.001
280.80	-0.001
281.02	-0.001
281.23	-0.000
281.44	-0.000
281.65	-0.000
281.86	-0.000
282.07	-0.000
282.29	0.000
282.50	0.000
282.71	0.001
282.92	0.000
283.13	0.000
283.35	0.000
283.56	0.000
283.77	0.000
283.98	0.000
284.19	0.000
284.40	0.000
284.62	0.000
284.83	0.000
285.04	0.000
285.25	0.001
285.46	0.001
285.67	0.000
285.88	0.000
286.10	0.000
286.31	0.001
286.52	0.001
286.73	0.001
286.94	0.001
287.15	0.001
287.37	0.001
287.58	0.001
287.79	0.001
288.00	0.001
288.21	0.002
288.42	0.002
288.63	0.002
288.85	0.002
289.06	0.002
289.27	0.002
289.48	0.002
289.69	0.003
289.90	0.002
290.11	0.003
290.33	0.003
290.54	0.002
290.75	0.002
290.96	0.002
291.17	0.002
291.38	0.003
291.59	0.003
291.81	0.002
292.02	0.002
292.23	0.002
292.44	0.002
292.65	0.002
292.86	0.003
293.07	0.003
293.28	0.003
293.50	0.003
293.71	0.003
293.92	0.003
294.13	0.003
294.34	0.003
294.55	0.002
294.76	0.003
294.97	0.003
295.19	0.003
295.40	0.002
295.61	0.003
295.82	0.003
296.03	0.003
296.24	0.003
296.45	0.003
296.66	0.003
296.87	0.003
297.09	0.003
297.30	0.003
297.51	0.003
297.72	0.003
297.93	0.003
298.14	0.003
298.35	0.003
298.56	0.002
298.77	0.003
298.99	0.002
299.20	0.002
299.41	0.002
299.62	0.002
299.83	0.002
300.04	0.002
300.25	0.002
300.46	0.002
300.67	0.002
300.88	0.002
301.10	0.002
301.31	0.002
301.52	0.002
301.73	0.002
301.94	0.002
302.15	0.002
302.36	0.002
302.57	0.002
302.78	0.002
302.99	0.003
303.20	0.002
303.41	0.002
303.63	0.003
303.84	0.002
304.05	0.002
304.26	0.002
304.47	0.002
304.68	0.002
304.89	0.002
305.10	0.002
305.31	0.002
305.52	0.002
305.73	0.002
305.94	0.002
306.15	0.002
306.37	0.002
306.58	0.002
306.79	0.002
307.00	0.002
307.21	0.002
307.42	0.002
307.63	0.002
307.84	0.002
308.05	0.002
308.26	0.002
308.47	0.002
308.68	0.002
308.89	0.002
309.10	0.002
309.31	0.002
309.52	0.002
309.73	0.002
309.95	0.002
310.16	0.002
310.37	0.002
310.58	0.002
310.79	0.002
311.00	0.002
311.21	0.002
311.42	0.002
311.63	0.002
311.84	0.002
312.05	0.002
312.26	0.002
312.47	0.002
312.68	0.002
312.89	0.002
313.10	0.002
313.31	0.002
313.52	0.002
313.73	0.002
313.94	0.002
314.15	0.002
314.36	0.002
314.57	0.002
314.78	0.002
314.99	0.002
315.21	0.002
315.42	0.002
315.63	0.002
315.84	0.002
316.05	0.002
316.26	0.002
316.47	0.002
316.68	0.002
316.89	0.002
317.10	0.002
317.31	0.002
317.52	0.002
317.73	0.002
317.94	0.002
318.15	0.002
318.36	0.002
318.57	0.002
318.78	0.002
318.99	0.002
319.20	0.002
319.41	0.002
319.62	0.002
319.83	0.002
320.04	0.002
320.25	0.002
320.46	0.002
320.67	0.002
320.88	0.002
321.09	0.002
321.30	0.002
321.51	0.002
321.72	0.002
321.93	0.002
322.14	0.002
322.35	0.002
322.56	0.002
322.77	0.002
322.98	0.002
323.19	0.002
323.40	0.002
323.61	0.002
323.82	0.002
324.03	0.002
324.24	0.002
324.45	0.002
324.66	0.002
324.87	0.002
325.08	0.002
325.29	0.002
325.50	0.002
325.71	0.002
325.92	0.002
326.13	0.002
326.34	0.002
326.55	0.002
326.76	0.002
326.97	0.002
327.18	0.002
327.39	0.002
327.60	0.002
327.80	0.002
328.01	0.002
328.22	0.002
328.43	0.002
328.64	0.002
328.85	0.002
329.06	0.002
329.27	0.002
329.48	0.002
329.69	0.002
329.90	0.002
330.11	0.002
330.32	0.002
330.53	0.002
330.74	0.002
330.95	0.002
331.16	0.001
331.37	0.002
331.58	0.001
331.79	0.001
332.00	0.002
332.21	0.001
332.42	0.001
332.63	0.001
332.83	0.001
333.04	0.001
333.25	0.001
333.46	0.001
333.67	0.001
333.88	0.002
334.09	0.001
334.30	0.001
334.51	0.001
334.72	0.001
334.93	0.001
335.14	0.001
335.35	0.001
335.56	0.001
335.77	0.001
335.98	0.001
336.18	0.001
336.39	0.001
336.60	0.001
336.81	0.001
337.02	0.001
337.23	0.002
337.44	0.002
337.65	0.002
337.86	0.002
338.07	0.002
338.28	0.002
338.49	0.002
338.70	0.002
338.91	0.002
339.11	0.002
339.32	0.002
339.53	0.002
339.74	0.002
339.95	0.001
340.16	0.001
340.37	0.001
340.58	0.001
340.79	0.001
341.00	0.001
341.21	0.001
341.41	0.001
341.62	0.001
341.83	0.001
342.04	0.001
342.25	0.001
342.46	0.001
342.67	0.001
342.88	0.001
343.09	0.001
343.30	0.001
343.50	0.001
343.71	0.001
343.92	0.001
344.13	0.001
344.34	0.001
344.55	0.001
344.76	0.001
344.97	0.001
345.18	0.002
345.38	0.001
345.59	0.001
345.80	0.002
346.01	0.001
346.22	0.001
346.43	0.002
346.64	0.002
346.85	0.002
347.06	0.002
347.26	0.002
347.47	0.002
347.68	0.002
347.89	0.002
348.10	0.002
348.31	0.002
348.52	0.002
348.73	0.002
348.93	0.002
349.14	0.002
349.35	0.002
349.56	0.002
349.77	0.002
349.98	0.002
350.19	0.002
350.39	0.002
350.60	0.002
350.81	0.001
351.02	0.001
351.23	0.001
351.44	0.001
351.65	0.001
351.86	0.001
352.06	0.001
352.27	0.001
352.48	0.001
352.69	0.001
352.90	0.001
353.11	0.001
353.31	0.001
353.52	0.001
353.73	0.001
353.94	0.001
354.15	0.001
354.36	0.002
354.57	0.002
354.77	0.002
354.98	0.002
355.19	0.002
355.40	0.001
355.61	0.001
355.82	0.002
356.02	0.001
356.23	0.002
356.44	0.002
356.65	0.002
356.86	0.001
357.07	0.001
357.27	0.002
357.48	0.002
357.69	0.002
357.90	0.002
358.11	0.002
358.32	0.002
358.52	0.001
358.73	0.001
358.94	0.001
359.15	0.001
359.36	0.001
359.56	0.001
359.77	0.001
359.98	0.001
360.19	0.001
360.40	0.001
360.61	0.001
360.81	0.001
361.02	0.001
361.23	0.001
361.44	0.001
361.65	0.001
361.85	0.001
362.06	0.001
362.27	0.001
362.48	0.002
362.69	0.002
362.89	0.002
363.10	0.002
363.31	0.002
363.52	0.002
363.73	0.002
363.93	0.002
364.14	0.002
364.35	0.002
364.56	0.002
364.77	0.002
364.97	0.002
365.18	0.002
365.39	0.002
365.60	0.002
365.81	0.002
366.01	0.002
366.22	0.002
366.43	0.002
366.64	0.001
366.84	0.002
367.05	0.002
367.26	0.001
367.47	0.001
367.68	0.001
367.88	0.001
368.09	0.001
368.30	0.001
368.51	0.001
368.71	0.001
368.92	0.001
369.13	0.001
369.34	0.001
369.55	0.001
369.75	0.001
369.96	0.001
370.17	0.001
370.38	0.001
370.58	0.001
370.79	0.001
371.00	0.001
371.21	0.001
371.41	0.001
371.62	0.001
371.83	0.001
372.04	0.001
372.24	0.001
372.45	0.001
372.66	0.001
372.87	0.002
373.07	0.001
373.28	0.001
373.49	0.002
373.70	0.001
373.90	0.002
374.11	0.002
374.32	0.002
374.53	0.002
374.73	0.002
374.94	0.002
375.15	0.001
375.36	0.001
375.56	0.001
375.77	0.001
375.98	0.001
376.19	0.001
376.39	0.001
376.60	0.001
376.81	0.001
377.02	0.001
377.22	0.001
377.43	0.001
377.64	0.001
377.84	0.002
378.05	0.002
378.26	0.002
378.47	0.002
378.67	0.002
378.88	0.002
379.09	0.002
379.30	0.002
379.50	0.002
379.71	0.002
379.92	0.002
380.12	0.002
380.33	0.001
380.54	0.002
380.75	0.001
380.95	0.001
381.16	0.001
381.37	0.001
381.57	0.001
381.78	0.001
381.99	0.001
382.20	0.001
382.40	0.001
382.61	0.001
382.82	0.001
383.02	0.001
383.23	0.001
383.44	0.001
383.64	0.001
383.85	0.001
384.06	0.001
384.27	0.001
384.47	0.001
384.68	0.001
384.89	0.001
385.09	0.001
385.30	0.001
385.51	0.001
385.71	0.001
385.92	0.001
386.13	0.001
386.33	0.001
386.54	0.001
386.75	0.001
386.95	0.001
387.16	0.001
387.37	0.001
387.58	0.001
387.78	0.001
387.99	0.001
388.20	0.001
388.40	0.001
388.61	0.001
388.82	0.001
389.02	0.001
389.23	0.001
389.44	0.001
389.64	0.001
389.85	0.001
390.06	0.001
390.26	0.001
390.47	0.001
390.68	0.001
390.88	0.001
391.09	0.001
391.30	0.001
391.50	0.001
391.71	0.001
391.92	0.001
392.12	0.001
392.33	0.001
392.53	0.001
392.74	0.001
392.95	0.001
393.15	0.001
393.36	0.001
393.57	0.001
393.77	0.001
393.98	0.001
394.19	0.001
394.39	0.001
394.60	0.001
394.81	0.001
395.01	0.001
395.22	0.001
395.43	0.001
395.63	0.001
395.84	0.001
396.04	0.001
396.25	0.001
396.46	0.001
396.66	0.001
396.87	0.001
397.08	0.001
397.28	0.001
397.49	0.001
397.69	0.001
397.90	0.001
398.11	0.001
398.31	0.001
398.52	0.001
398.73	0.001
398.93	0.001
399.14	0.001
399.34	0.001
399.55	0.001
399.76	0.001
399.96	0.001
400.17	0.001
400.37	0.001
400.58	0.001
400.79	0.001
400.99	0.001
401.20	0.001
401.41	0.001
401.61	0.001
401.82	0.001
402.02	0.001
402.23	0.001
402.44	0.001
402.64	0.001
402.85	0.001
403.05	0.001
403.26	0.001
403.47	0.001
403.67	0.001
403.88	0.001
404.08	0.001
404.29	0.001
404.50	0.001
404.70	0.001
404.91	0.001
405.11	0.001
405.32	0.001
405.52	0.001
405.73	0.001
405.94	0.001
406.14	0.001
406.35	0.001
406.55	0.001
406.76	0.001
406.97	0.001
407.17	0.001
407.38	0.001
407.58	0.001
407.79	0.001
407.99	0.001
408.20	0.001
408.41	0.001
408.61	0.001
408.82	0.001
409.02	0.001
409.23	0.001
409.43	0.001
409.64	0.001
409.84	0.001
410.05	0.001
410.26	0.001
410.46	0.001
410.67	0.001
410.87	0.001
411.08	0.001
411.28	0.001
411.49	0.001
411.69	0.001
411.90	0.001
412.11	0.001
412.31	0.000
412.52	0.001
412.72	0.001
412.93	0.001
413.13	0.001
413.34	0.001
413.54	0.001
413.75	0.001
413.95	0.001
414.16	0.001
414.37	0.001
414.57	0.001
414.78	0.001
414.98	0.001
415.19	0.001
415.39	0.001
415.60	0.001
415.80	0.001
416.01	0.001
416.21	0.001
416.42	0.001
416.62	0.001
416.83	0.001
417.03	0.001
417.24	0.001
417.44	0.001
417.65	0.001
417.86	0.001
418.06	0.001
418.27	0.001
418.47	0.001
418.68	0.001
418.88	0.001
419.09	0.001
419.29	0.001
419.50	0.001
419.70	0.001
419.91	0.001
420.11	0.001
420.32	0.001
420.52	0.001
420.73	0.001
420.93	0.001
421.14	0.001
421.34	0.001
421.55	0.001
421.75	0.001
421.96	0.001
422.16	0.001
422.37	0.001
422.57	0.001
422.78	0.001
422.98	0.001
423.19	0.001
423.39	0.001
423.60	0.001
423.80	0.001
424.01	0.001
424.21	0.001
424.42	0.001
424.62	0.001
424.83	0.001
425.03	0.001
425.23	0.001
425.44	0.001
425.64	0.001
425.85	0.001
426.05	0.001
426.26	0.001
426.46	0.001
426.67	0.001
426.87	0.001
427.08	0.001
427.28	0.001
427.49	0.001
427.69	0.001
427.90	0.001
428.10	0.001
428.31	0.001
428.51	0.001
428.71	0.001
428.92	0.001
429.12	0.001
429.33	0.001
429.53	0.001
429.74	0.001
429.94	0.001
430.15	0.001
430.35	0.001
430.56	0.001
430.76	0.001
430.96	0.001
431.17	0.001
431.37	0.001
431.58	0.001
431.78	0.001
431.99	0.001
432.19	0.001
432.40	0.001
432.60	0.001
432.80	0.001
433.01	0.001
433.21	0.001
433.42	0.001
433.62	0.001
433.83	0.001
434.03	0.001
434.23	0.001
434.44	0.001
434.64	0.001
434.85	0.001
435.05	0.001
435.26	0.001
435.46	0.001
435.66	0.000
435.87	0.000
436.07	0.000
436.28	0.000
436.48	0.000
436.69	0.000
436.89	0.000
437.09	0.001
437.30	0.001
437.50	0.001
437.71	0.001
437.91	0.001
438.11	0.001
438.32	0.001
438.52	0.001
438.73	0.001
438.93	0.001
439.13	0.001
439.34	0.001
439.54	0.001
439.75	0.001
439.95	0.001
440.15	0.001
440.36	0.000
440.56	0.000
440.77	0.000
440.97	0.000
441.17	0.000
441.38	0.000
441.58	0.000
441.79	0.001
441.99	0.000
442.19	0.000
442.40	0.001
442.60	0.001
442.81	0.001
443.01	0.001
443.21	0.001
443.42	0.001
443.62	0.001
443.82	0.001
444.03	0.001
444.23	0.001
444.44	0.001
444.64	0.001
444.84	0.001
445.05	0.001
445.25	0.001
445.45	0.001
445.66	0.001
445.86	0.000
446.06	0.001
446.27	0.001
446.47	0.001
446.68	0.001
446.88	0.001
447.08	0.001
447.29	0.001
447.49	0.001
447.69	0.000
447.90	0.001
448.10	0.001
448.30	0.001
448.51	0.001
448.71	0.001
448.91	0.001
449.12	0.001
449.32	0.001
449.52	0.001
449.73	0.001
449.93	0.001
450.14	0.001
450.34	0.001
450.54	0.001
450.75	0.001
450.95	0.001
451.15	0.001
451.36	0.001
451.56	0.001
451.76	0.001
451.97	0.001
452.17	0.001
452.37	0.001
452.58	0.001
452.78	0.001
452.98	0.001
453.19	0.001
453.39	0.001
453.59	0.001
453.79	0.001
454.00	0.001
454.20	0.000
454.40	0.001
454.61	0.000
454.81	0.000
455.01	0.000
455.22	0.000
455.42	0.000
455.62	0.000
455.83	0.000
456.03	0.000
456.23	0.000
456.44	0.000
456.64	0.000
456.84	0.000
457.04	0.000
457.25	0.000
457.45	0.000
457.65	0.000
457.86	0.000
458.06	0.000
458.26	0.000
458.47	0.001
458.67	0.001
458.87	0.001
459.07	0.001
459.28	0.001
459.48	0.001
459.68	0.001
459.89	0.001
460.09	0.001
460.29	0.001
460.49	0.001
460.70	0.001
460.90	0.001
461.10	0.001
461.31	0.001
461.51	0.001
461.71	0.001
461.91	0.001
462.12	0.000
462.32	0.000
462.52	0.000
462.72	0.000
462.93	0.000
463.13	0.000
463.33	0.000
463.53	0.000
463.74	0.000
463.94	0.000
464.14	0.001
464.35	0.001
464.55	0.001
