SpectraSuite Data File
++++++++++++++++++++++++++++++++++++
Date: Mon Jun 15 09:15:11 PDT 2015
User: introlabs
Dark Spectrum Present: Yes
Reference Spectrum Present: Yes
Number of Sampled Component Spectra: 1
Spectrometers: USB4H08886
Integration Time (usec): 44366 (USB4H08886)
Spectra Averaged: 20 (USB4H08886)
Boxcar Smoothing: 5 (USB4H08886)
Correct for Electrical Dark: Yes (USB4H08886)
Strobe/Lamp Enabled: No (USB4H08886)
Correct for Detector Non-linearity: Yes (USB4H08886)
Correct for Stray Light: Yes (USB4H08886)
Number of Pixels in Processed Spectrum: 3648
>>>>>Begin Processed Spectral Data<<<<<
178.14	-0.000
178.36	-0.000
178.57	-0.000
178.79	0.312
179.01	-0.813
179.22	-0.000
179.44	-0.000
179.65	-0.614
179.87	-0.352
180.08	-0.143
180.30	-0.184
180.52	-0.236
180.73	-0.200
180.95	-0.048
181.16	-0.002
181.38	-0.011
181.59	0.001
181.81	-0.008
182.03	0.010
182.24	0.025
182.46	0.025
182.67	0.019
182.89	0.017
183.10	0.026
183.32	0.020
183.54	0.013
183.75	0.019
183.97	0.026
184.18	0.023
184.40	0.020
184.61	0.018
184.83	0.015
185.04	0.020
185.26	0.020
185.48	0.010
185.69	0.009
185.91	0.011
186.12	0.004
186.34	0.003
186.55	-0.004
186.77	0.001
186.98	0.001
187.20	-0.001
187.42	0.004
187.63	0.004
187.85	0.002
188.06	0.008
188.28	0.005
188.49	0.008
188.71	0.009
188.92	0.009
189.14	-0.006
189.36	-0.001
189.57	0.004
189.79	-0.012
190.00	-0.012
190.22	-0.013
190.43	-0.016
190.65	-0.016
190.86	-0.009
191.08	-0.011
191.29	-0.006
191.51	0.004
191.72	0.001
191.94	0.000
192.16	0.008
192.37	0.006
192.59	0.008
192.80	0.011
193.02	0.020
193.23	0.018
193.45	0.012
193.66	0.013
193.88	0.010
194.09	0.007
194.31	-0.002
194.52	-0.008
194.74	-0.007
194.95	-0.012
195.17	-0.019
195.38	-0.034
195.60	-0.039
195.81	-0.030
196.03	-0.029
196.25	-0.022
196.46	-0.024
196.68	-0.019
196.89	-0.009
197.11	-0.005
197.32	-0.004
197.54	-0.000
197.75	0.024
197.97	0.023
198.18	0.017
198.40	0.019
198.61	0.016
198.83	0.006
199.04	0.011
199.26	0.005
199.47	0.001
199.69	0.007
199.90	0.014
200.12	0.004
200.33	0.007
200.55	0.012
200.76	0.005
200.98	-0.001
201.19	0.004
201.41	-0.006
201.62	-0.002
201.84	0.000
202.05	-0.004
202.27	-0.010
202.48	-0.017
202.70	-0.016
202.91	-0.014
203.13	-0.016
203.34	-0.021
203.56	-0.013
203.77	-0.010
203.99	-0.015
204.20	-0.021
204.42	-0.017
204.63	-0.012
204.85	-0.010
205.06	-0.017
205.28	-0.019
205.49	-0.012
205.71	0.000
205.92	0.002
206.14	0.001
206.35	0.011
206.56	0.019
206.78	0.019
206.99	0.018
207.21	0.025
207.42	0.031
207.64	0.031
207.85	0.031
208.07	0.031
208.28	0.033
208.50	0.036
208.71	0.034
208.93	0.032
209.14	0.029
209.36	0.029
209.57	0.029
209.79	0.029
210.00	0.029
210.22	0.030
210.43	0.026
210.64	0.021
210.86	0.018
211.07	0.013
211.29	0.012
211.50	0.011
211.72	-0.003
211.93	-0.003
212.15	-0.005
212.36	-0.012
212.58	-0.017
212.79	-0.019
213.01	-0.022
213.22	-0.020
213.43	-0.019
213.65	-0.020
213.86	-0.019
214.08	-0.008
214.29	-0.011
214.51	-0.015
214.72	-0.013
214.94	-0.013
215.15	-0.005
215.36	-0.002
215.58	-0.003
215.79	-0.002
216.01	0.002
216.22	0.005
216.44	0.000
216.65	0.001
216.87	0.008
217.08	0.008
217.29	0.020
217.51	0.012
217.72	0.012
217.94	0.017
218.15	0.018
218.37	0.013
218.58	0.007
218.80	0.009
219.01	0.004
219.22	0.001
219.44	0.002
219.65	-0.006
219.87	-0.004
220.08	-0.007
220.30	-0.013
220.51	-0.016
220.72	-0.017
220.94	-0.020
221.15	-0.022
221.37	-0.022
221.58	-0.020
221.79	-0.017
222.01	-0.026
222.22	-0.027
222.44	-0.030
222.65	-0.029
222.87	-0.026
223.08	-0.022
223.29	-0.021
223.51	-0.021
223.72	-0.019
223.94	-0.026
224.15	-0.030
224.36	-0.024
224.58	-0.029
224.79	-0.024
225.01	-0.027
225.22	-0.028
225.44	-0.031
225.65	-0.026
225.86	-0.026
226.08	-0.024
226.29	-0.025
226.51	-0.020
226.72	-0.021
226.93	-0.015
227.15	-0.023
227.36	-0.023
227.58	-0.026
227.79	-0.026
228.00	-0.031
228.22	-0.035
228.43	-0.040
228.65	-0.040
228.86	-0.044
229.07	-0.043
229.29	-0.045
229.50	-0.044
229.72	-0.043
229.93	-0.044
230.14	-0.043
230.36	-0.044
230.57	-0.043
230.78	-0.044
231.00	-0.047
231.21	-0.049
231.43	-0.052
231.64	-0.054
231.85	-0.053
232.07	-0.054
232.28	-0.053
232.50	-0.056
232.71	-0.058
232.92	-0.059
233.14	-0.060
233.35	-0.057
233.56	-0.058
233.78	-0.059
233.99	-0.059
234.21	-0.059
234.42	-0.059
234.63	-0.061
234.85	-0.061
235.06	-0.060
235.27	-0.060
235.49	-0.058
235.70	-0.059
235.91	-0.060
236.13	-0.059
236.34	-0.060
236.56	-0.061
236.77	-0.061
236.98	-0.060
237.20	-0.060
237.41	-0.059
237.62	-0.058
237.84	-0.059
238.05	-0.059
238.26	-0.059
238.48	-0.059
238.69	-0.056
238.91	-0.056
239.12	-0.055
239.33	-0.055
239.55	-0.054
239.76	-0.053
239.97	-0.052
240.19	-0.051
240.40	-0.050
240.61	-0.049
240.83	-0.049
241.04	-0.049
241.25	-0.049
241.47	-0.047
241.68	-0.047
241.89	-0.046
242.11	-0.045
242.32	-0.045
242.53	-0.045
242.75	-0.043
242.96	-0.042
243.17	-0.041
243.39	-0.041
243.60	-0.041
243.81	-0.041
244.03	-0.041
244.24	-0.041
244.45	-0.040
244.67	-0.039
244.88	-0.037
245.09	-0.037
245.31	-0.037
245.52	-0.036
245.73	-0.035
245.95	-0.034
246.16	-0.033
246.37	-0.033
246.59	-0.032
246.80	-0.033
247.01	-0.033
247.23	-0.033
247.44	-0.033
247.65	-0.033
247.87	-0.032
248.08	-0.032
248.29	-0.032
248.51	-0.031
248.72	-0.031
248.93	-0.030
249.15	-0.030
249.36	-0.029
249.57	-0.029
249.78	-0.029
250.00	-0.028
250.21	-0.028
250.42	-0.028
250.64	-0.027
250.85	-0.027
251.06	-0.027
251.28	-0.027
251.49	-0.026
251.70	-0.026
251.92	-0.025
252.13	-0.025
252.34	-0.024
252.55	-0.024
252.77	-0.024
252.98	-0.024
253.19	-0.024
253.41	-0.023
253.62	-0.023
253.83	-0.022
254.05	-0.022
254.26	-0.022
254.47	-0.022
254.68	-0.023
254.90	-0.023
255.11	-0.022
255.32	-0.022
255.54	-0.022
255.75	-0.022
255.96	-0.022
256.17	-0.022
256.39	-0.022
256.60	-0.022
256.81	-0.022
257.03	-0.022
257.24	-0.022
257.45	-0.022
257.66	-0.022
257.88	-0.022
258.09	-0.022
258.30	-0.022
258.51	-0.022
258.73	-0.022
258.94	-0.022
259.15	-0.022
259.37	-0.023
259.58	-0.023
259.79	-0.023
260.00	-0.023
260.22	-0.022
260.43	-0.022
260.64	-0.023
260.85	-0.023
261.07	-0.023
261.28	-0.023
261.49	-0.023
261.71	-0.023
261.92	-0.022
262.13	-0.023
262.34	-0.023
262.56	-0.023
262.77	-0.023
262.98	-0.023
263.19	-0.023
263.41	-0.024
263.62	-0.024
263.83	-0.024
264.04	-0.025
264.26	-0.025
264.47	-0.025
264.68	-0.025
264.89	-0.025
265.11	-0.026
265.32	-0.026
265.53	-0.026
265.74	-0.026
265.96	-0.026
266.17	-0.025
266.38	-0.026
266.59	-0.026
266.81	-0.026
267.02	-0.026
267.23	-0.026
267.44	-0.027
267.65	-0.027
267.87	-0.028
268.08	-0.028
268.29	-0.028
268.50	-0.028
268.72	-0.028
268.93	-0.029
269.14	-0.029
269.35	-0.029
269.57	-0.029
269.78	-0.029
269.99	-0.030
270.20	-0.030
270.41	-0.030
270.63	-0.030
270.84	-0.031
271.05	-0.031
271.26	-0.031
271.48	-0.031
271.69	-0.032
271.90	-0.032
272.11	-0.032
272.32	-0.033
272.54	-0.033
272.75	-0.033
272.96	-0.033
273.17	-0.033
273.39	-0.033
273.60	-0.033
273.81	-0.033
274.02	-0.033
274.23	-0.033
274.45	-0.033
274.66	-0.033
274.87	-0.033
275.08	-0.033
275.29	-0.033
275.51	-0.034
275.72	-0.034
275.93	-0.034
276.14	-0.033
276.35	-0.033
276.57	-0.033
276.78	-0.033
276.99	-0.033
277.20	-0.033
277.41	-0.033
277.63	-0.033
277.84	-0.033
278.05	-0.033
278.26	-0.032
278.47	-0.033
278.69	-0.033
278.90	-0.032
279.11	-0.032
279.32	-0.032
279.53	-0.032
279.74	-0.031
279.96	-0.031
280.17	-0.031
280.38	-0.031
280.59	-0.031
280.80	-0.031
281.02	-0.030
281.23	-0.030
281.44	-0.030
281.65	-0.030
281.86	-0.030
282.07	-0.029
282.29	-0.029
282.50	-0.028
282.71	-0.028
282.92	-0.028
283.13	-0.028
283.35	-0.027
283.56	-0.027
283.77	-0.027
283.98	-0.027
284.19	-0.026
284.40	-0.026
284.62	-0.026
284.83	-0.026
285.04	-0.026
285.25	-0.025
285.46	-0.024
285.67	-0.024
285.88	-0.024
286.10	-0.023
286.31	-0.022
286.52	-0.021
286.73	-0.021
286.94	-0.020
287.15	-0.019
287.37	-0.019
287.58	-0.018
287.79	-0.017
288.00	-0.017
288.21	-0.016
288.42	-0.015
288.63	-0.015
288.85	-0.014
289.06	-0.014
289.27	-0.013
289.48	-0.013
289.69	-0.012
289.90	-0.012
290.11	-0.011
290.33	-0.011
290.54	-0.010
290.75	-0.010
290.96	-0.009
291.17	-0.009
291.38	-0.009
291.59	-0.008
291.81	-0.008
292.02	-0.008
292.23	-0.008
292.44	-0.007
292.65	-0.007
292.86	-0.007
293.07	-0.007
293.28	-0.006
293.50	-0.006
293.71	-0.006
293.92	-0.006
294.13	-0.006
294.34	-0.005
294.55	-0.005
294.76	-0.005
294.97	-0.005
295.19	-0.005
295.40	-0.005
295.61	-0.005
295.82	-0.005
296.03	-0.005
296.24	-0.004
296.45	-0.004
296.66	-0.004
296.87	-0.004
297.09	-0.004
297.30	-0.004
297.51	-0.004
297.72	-0.004
297.93	-0.004
298.14	-0.003
298.35	-0.003
298.56	-0.003
298.77	-0.003
298.99	-0.003
299.20	-0.003
299.41	-0.003
299.62	-0.003
299.83	-0.003
300.04	-0.003
300.25	-0.003
300.46	-0.003
300.67	-0.002
300.88	-0.002
301.10	-0.002
301.31	-0.002
301.52	-0.002
301.73	-0.002
301.94	-0.002
302.15	-0.002
302.36	-0.002
302.57	-0.002
302.78	-0.002
302.99	-0.002
303.20	-0.003
303.41	-0.003
303.63	-0.002
303.84	-0.002
304.05	-0.002
304.26	-0.002
304.47	-0.002
304.68	-0.002
304.89	-0.002
305.10	-0.002
305.31	-0.002
305.52	-0.002
305.73	-0.002
305.94	-0.002
306.15	-0.002
306.37	-0.001
306.58	-0.001
306.79	-0.001
307.00	-0.001
307.21	-0.001
307.42	-0.001
307.63	-0.001
307.84	-0.001
308.05	-0.001
308.26	-0.001
308.47	-0.001
308.68	-0.001
308.89	-0.001
309.10	-0.001
309.31	-0.001
309.52	-0.001
309.73	-0.001
309.95	-0.001
310.16	-0.001
310.37	-0.001
310.58	-0.001
310.79	-0.001
311.00	-0.001
311.21	-0.001
311.42	-0.001
311.63	-0.000
311.84	-0.001
312.05	-0.001
312.26	-0.000
312.47	-0.000
312.68	-0.000
312.89	-0.000
313.10	0.000
313.31	0.000
313.52	0.000
313.73	0.000
313.94	0.000
314.15	0.000
314.36	0.000
314.57	0.001
314.78	0.001
314.99	0.001
315.21	0.001
315.42	0.001
315.63	0.001
315.84	0.001
316.05	0.001
316.26	0.001
316.47	0.001
316.68	0.001
316.89	0.001
317.10	0.001
317.31	0.001
317.52	0.001
317.73	0.001
317.94	0.001
318.15	0.001
318.36	0.001
318.57	0.001
318.78	0.001
318.99	0.001
319.20	0.001
319.41	0.001
319.62	0.001
319.83	0.001
320.04	0.001
320.25	0.001
320.46	0.001
320.67	0.001
320.88	0.001
321.09	0.001
321.30	0.001
321.51	0.001
321.72	0.001
321.93	0.001
322.14	0.001
322.35	0.001
322.56	0.001
322.77	0.001
322.98	0.001
323.19	0.001
323.40	0.001
323.61	0.001
323.82	0.001
324.03	0.001
324.24	0.002
324.45	0.002
324.66	0.001
324.87	0.002
325.08	0.002
325.29	0.002
325.50	0.002
325.71	0.002
325.92	0.002
326.13	0.002
326.34	0.002
326.55	0.002
326.76	0.002
326.97	0.002
327.18	0.002
327.39	0.002
327.60	0.002
327.80	0.002
328.01	0.002
328.22	0.002
328.43	0.002
328.64	0.002
328.85	0.002
329.06	0.002
329.27	0.002
329.48	0.002
329.69	0.002
329.90	0.002
330.11	0.002
330.32	0.002
330.53	0.002
330.74	0.002
330.95	0.002
331.16	0.002
331.37	0.002
331.58	0.002
331.79	0.002
332.00	0.002
332.21	0.002
332.42	0.002
332.63	0.002
332.83	0.002
333.04	0.002
333.25	0.002
333.46	0.002
333.67	0.002
333.88	0.002
334.09	0.002
334.30	0.002
334.51	0.002
334.72	0.002
334.93	0.002
335.14	0.002
335.35	0.002
335.56	0.002
335.77	0.002
335.98	0.002
336.18	0.001
336.39	0.002
336.60	0.002
336.81	0.002
337.02	0.002
337.23	0.002
337.44	0.002
337.65	0.002
337.86	0.002
338.07	0.002
338.28	0.002
338.49	0.002
338.70	0.002
338.91	0.001
339.11	0.001
339.32	0.001
339.53	0.001
339.74	0.001
339.95	0.001
340.16	0.001
340.37	0.001
340.58	0.001
340.79	0.001
341.00	0.001
341.21	0.001
341.41	0.001
341.62	0.000
341.83	0.000
342.04	0.000
342.25	0.000
342.46	0.000
342.67	0.000
342.88	0.000
343.09	0.000
343.30	0.000
343.50	0.000
343.71	0.000
343.92	0.001
344.13	0.001
344.34	0.001
344.55	0.000
344.76	0.000
344.97	0.000
345.18	0.000
345.38	-0.000
345.59	-0.000
345.80	-0.000
346.01	-0.000
346.22	-0.000
346.43	-0.000
346.64	-0.000
346.85	-0.000
347.06	-0.000
347.26	-0.000
347.47	-0.000
347.68	-0.000
347.89	-0.000
348.10	-0.000
348.31	-0.001
348.52	-0.001
348.73	-0.001
348.93	-0.001
349.14	-0.001
349.35	-0.001
349.56	-0.001
349.77	-0.001
349.98	-0.001
350.19	-0.001
350.39	-0.001
350.60	-0.001
350.81	-0.001
351.02	-0.001
351.23	-0.001
351.44	-0.001
351.65	-0.001
351.86	-0.001
352.06	-0.001
352.27	-0.001
352.48	-0.001
352.69	-0.001
352.90	-0.001
353.11	-0.001
353.31	-0.000
353.52	-0.000
353.73	-0.000
353.94	-0.000
354.15	-0.001
354.36	-0.000
354.57	-0.000
354.77	-0.000
354.98	-0.001
355.19	-0.001
355.40	-0.000
355.61	-0.000
355.82	-0.000
356.02	-0.000
356.23	-0.000
356.44	-0.000
356.65	-0.000
356.86	-0.000
357.07	-0.000
357.27	-0.000
357.48	-0.000
357.69	-0.001
357.90	-0.001
358.11	-0.001
358.32	-0.001
358.52	-0.001
358.73	-0.001
358.94	-0.001
359.15	-0.001
359.36	-0.001
359.56	-0.001
359.77	-0.001
359.98	-0.001
360.19	-0.001
360.40	-0.001
360.61	-0.001
360.81	-0.001
361.02	-0.001
361.23	-0.001
361.44	-0.001
361.65	-0.001
361.85	-0.001
362.06	-0.001
362.27	-0.001
362.48	-0.001
362.69	-0.001
362.89	-0.001
363.10	-0.001
363.31	-0.001
363.52	-0.001
363.73	-0.001
363.93	-0.001
364.14	-0.001
364.35	-0.001
364.56	-0.001
364.77	-0.001
364.97	-0.001
365.18	-0.001
365.39	-0.001
365.60	-0.001
365.81	-0.001
366.01	-0.001
366.22	-0.001
366.43	-0.001
366.64	-0.001
366.84	-0.001
367.05	-0.001
367.26	-0.001
367.47	-0.001
367.68	-0.001
367.88	-0.001
368.09	-0.001
368.30	-0.001
368.51	-0.001
368.71	-0.001
368.92	-0.001
369.13	-0.001
369.34	-0.001
369.55	-0.001
369.75	-0.001
369.96	-0.001
370.17	-0.001
370.38	-0.001
370.58	-0.001
370.79	-0.001
371.00	-0.001
371.21	-0.001
371.41	-0.001
371.62	-0.001
371.83	-0.001
372.04	-0.001
372.24	-0.001
372.45	-0.001
372.66	-0.001
372.87	-0.001
373.07	-0.001
373.28	-0.001
373.49	-0.001
373.70	-0.001
373.90	-0.001
374.11	-0.001
374.32	-0.001
374.53	-0.001
374.73	-0.001
374.94	-0.001
375.15	-0.001
375.36	-0.001
375.56	-0.001
375.77	-0.001
375.98	-0.001
376.19	-0.001
376.39	-0.001
376.60	-0.001
376.81	-0.001
377.02	-0.001
377.22	-0.001
377.43	-0.001
377.64	-0.001
377.84	-0.001
378.05	-0.001
378.26	-0.001
378.47	-0.001
378.67	-0.001
378.88	-0.001
379.09	-0.001
379.30	-0.001
379.50	-0.001
379.71	-0.001
379.92	-0.001
380.12	-0.001
380.33	-0.001
380.54	-0.001
380.75	-0.001
380.95	-0.001
381.16	-0.001
381.37	-0.001
381.57	-0.001
381.78	-0.001
381.99	-0.001
382.20	-0.001
382.40	-0.001
382.61	-0.001
382.82	-0.001
383.02	-0.001
383.23	-0.001
383.44	-0.001
383.64	-0.001
383.85	-0.001
384.06	-0.001
384.27	-0.001
384.47	-0.001
384.68	-0.001
384.89	-0.001
385.09	-0.001
385.30	-0.001
385.51	-0.001
385.71	-0.001
385.92	-0.001
386.13	-0.001
386.33	-0.001
386.54	-0.001
386.75	-0.001
386.95	-0.001
387.16	-0.001
387.37	-0.001
387.58	-0.001
387.78	-0.001
387.99	-0.001
388.20	-0.001
388.40	-0.001
388.61	-0.001
388.82	-0.001
389.02	-0.001
389.23	-0.002
389.44	-0.002
389.64	-0.001
389.85	-0.001
390.06	-0.002
390.26	-0.002
390.47	-0.002
390.68	-0.002
390.88	-0.002
391.09	-0.002
391.30	-0.001
391.50	-0.001
391.71	-0.002
391.92	-0.002
392.12	-0.002
392.33	-0.002
392.53	-0.001
392.74	-0.001
392.95	-0.001
393.15	-0.001
393.36	-0.001
393.57	-0.001
393.77	-0.001
393.98	-0.001
394.19	-0.001
394.39	-0.001
394.60	-0.001
394.81	-0.001
395.01	-0.001
395.22	-0.001
395.43	-0.001
395.63	-0.001
395.84	-0.001
396.04	-0.001
396.25	-0.001
396.46	-0.002
396.66	-0.001
396.87	-0.001
397.08	-0.001
397.28	-0.001
397.49	-0.001
397.69	-0.001
397.90	-0.001
398.11	-0.001
398.31	-0.001
398.52	-0.001
398.73	-0.001
398.93	-0.001
399.14	-0.001
399.34	-0.002
399.55	-0.002
399.76	-0.002
399.96	-0.001
400.17	-0.001
400.37	-0.002
400.58	-0.002
400.79	-0.002
400.99	-0.002
401.20	-0.002
401.41	-0.002
401.61	-0.001
401.82	-0.001
402.02	-0.001
402.23	-0.001
402.44	-0.001
402.64	-0.001
402.85	-0.001
403.05	-0.001
403.26	-0.001
403.47	-0.001
403.67	-0.001
403.88	-0.001
404.08	-0.001
404.29	-0.002
404.50	-0.002
404.70	-0.002
404.91	-0.002
405.11	-0.002
405.32	-0.002
405.52	-0.002
405.73	-0.002
405.94	-0.002
406.14	-0.002
406.35	-0.002
406.55	-0.002
406.76	-0.002
406.97	-0.002
407.17	-0.002
407.38	-0.002
407.58	-0.002
407.79	-0.002
407.99	-0.002
408.20	-0.002
408.41	-0.002
408.61	-0.002
408.82	-0.002
409.02	-0.002
409.23	-0.002
409.43	-0.001
409.64	-0.002
409.84	-0.001
410.05	-0.001
410.26	-0.002
410.46	-0.002
410.67	-0.002
410.87	-0.002
411.08	-0.002
411.28	-0.002
411.49	-0.002
411.69	-0.002
411.90	-0.002
412.11	-0.002
412.31	-0.002
412.52	-0.002
412.72	-0.002
412.93	-0.002
413.13	-0.002
413.34	-0.002
413.54	-0.002
413.75	-0.002
413.95	-0.002
414.16	-0.002
414.37	-0.002
414.57	-0.002
414.78	-0.002
414.98	-0.002
415.19	-0.002
415.39	-0.002
415.60	-0.002
415.80	-0.002
416.01	-0.002
416.21	-0.002
416.42	-0.002
416.62	-0.002
416.83	-0.002
417.03	-0.002
417.24	-0.002
417.44	-0.002
417.65	-0.002
417.86	-0.002
418.06	-0.002
418.27	-0.002
418.47	-0.002
418.68	-0.002
418.88	-0.002
419.09	-0.002
419.29	-0.003
419.50	-0.003
419.70	-0.003
419.91	-0.002
420.11	-0.002
420.32	-0.002
420.52	-0.002
420.73	-0.002
420.93	-0.002
421.14	-0.002
421.34	-0.002
421.55	-0.002
421.75	-0.002
421.96	-0.002
422.16	-0.002
422.37	-0.002
422.57	-0.002
422.78	-0.002
422.98	-0.002
423.19	-0.002
423.39	-0.002
423.60	-0.002
423.80	-0.002
424.01	-0.002
424.21	-0.002
424.42	-0.002
424.62	-0.002
424.83	-0.002
425.03	-0.002
425.23	-0.002
425.44	-0.002
425.64	-0.002
425.85	-0.002
426.05	-0.002
426.26	-0.002
426.46	-0.002
426.67	-0.002
426.87	-0.002
427.08	-0.002
427.28	-0.002
427.49	-0.003
427.69	-0.003
427.90	-0.003
428.10	-0.003
428.31	-0.003
428.51	-0.003
428.71	-0.003
428.92	-0.003
429.12	-0.003
429.33	-0.003
429.53	-0.003
429.74	-0.003
429.94	-0.003
430.15	-0.002
430.35	-0.002
430.56	-0.002
430.76	-0.002
430.96	-0.002
431.17	-0.002
431.37	-0.002
431.58	-0.002
431.78	-0.002
431.99	-0.002
432.19	-0.002
432.40	-0.002
432.60	-0.002
432.80	-0.002
433.01	-0.002
433.21	-0.002
433.42	-0.002
433.62	-0.002
433.83	-0.002
434.03	-0.002
434.23	-0.002
434.44	-0.002
434.64	-0.002
434.85	-0.002
435.05	-0.002
435.26	-0.002
435.46	-0.002
435.66	-0.002
435.87	-0.002
436.07	-0.003
436.28	-0.003
436.48	-0.003
436.69	-0.003
436.89	-0.003
437.09	-0.003
437.30	-0.003
437.50	-0.002
437.71	-0.002
437.91	-0.002
438.11	-0.002
438.32	-0.002
438.52	-0.002
438.73	-0.002
438.93	-0.002
439.13	-0.002
439.34	-0.002
439.54	-0.002
439.75	-0.002
439.95	-0.003
440.15	-0.002
440.36	-0.002
440.56	-0.002
440.77	-0.002
440.97	-0.002
441.17	-0.002
441.38	-0.002
441.58	-0.002
441.79	-0.002
441.99	-0.002
442.19	-0.002
442.40	-0.002
442.60	-0.002
442.81	-0.002
443.01	-0.002
443.21	-0.002
443.42	-0.002
443.62	-0.002
443.82	-0.002
444.03	-0.002
444.23	-0.002
444.44	-0.002
444.64	-0.002
444.84	-0.002
445.05	-0.002
445.25	-0.002
445.45	-0.002
445.66	-0.002
445.86	-0.002
446.06	-0.002
446.27	-0.002
446.47	-0.002
446.68	-0.002
446.88	-0.002
447.08	-0.002
447.29	-0.002
447.49	-0.002
447.69	-0.002
447.90	-0.002
448.10	-0.002
448.30	-0.002
448.51	-0.002
448.71	-0.002
448.91	-0.002
449.12	-0.002
449.32	-0.002
449.52	-0.002
449.73	-0.002
449.93	-0.002
450.14	-0.002
450.34	-0.002
450.54	-0.002
450.75	-0.002
450.95	-0.002
451.15	-0.002
451.36	-0.002
451.56	-0.002
451.76	-0.002
451.97	-0.002
452.17	-0.002
452.37	-0.002
452.58	-0.002
452.78	-0.002
