SpectraSuite Data File
++++++++++++++++++++++++++++++++++++
Date: Mon Jun 15 07:43:31 PDT 2015
User: introlabs
Dark Spectrum Present: Yes
Reference Spectrum Present: Yes
Number of Sampled Component Spectra: 1
Spectrometers: USB4H08886
Integration Time (usec): 44366 (USB4H08886)
Spectra Averaged: 20 (USB4H08886)
Boxcar Smoothing: 5 (USB4H08886)
Correct for Electrical Dark: Yes (USB4H08886)
Strobe/Lamp Enabled: No (USB4H08886)
Correct for Detector Non-linearity: Yes (USB4H08886)
Correct for Stray Light: Yes (USB4H08886)
Number of Pixels in Processed Spectrum: 3648
>>>>>Begin Processed Spectral Data<<<<<
178.14	0.047
178.36	0.047
178.57	0.047
178.79	1.061
179.01	-0.947
179.22	0.043
179.44	-0.143
179.65	0.395
179.87	0.012
180.08	0.357
180.30	0.316
180.52	0.385
180.73	0.188
180.95	0.177
181.16	0.091
181.38	0.078
181.59	0.079
181.81	0.062
182.03	0.065
182.24	0.068
182.46	0.058
182.67	0.049
182.89	0.049
183.10	0.050
183.32	0.047
183.54	0.035
183.75	0.035
183.97	0.032
184.18	0.028
184.40	0.021
184.61	0.025
184.83	0.019
185.04	0.016
185.26	0.011
185.48	0.012
185.69	0.007
185.91	0.013
186.12	0.011
186.34	0.021
186.55	0.019
186.77	0.026
186.98	0.024
187.20	0.019
187.42	0.025
187.63	0.023
187.85	0.017
188.06	0.018
188.28	0.020
188.49	0.023
188.71	0.015
188.92	0.020
189.14	0.017
189.36	0.018
189.57	0.023
189.79	0.012
190.00	0.011
190.22	0.013
190.43	0.012
190.65	0.006
190.86	0.012
191.08	0.009
191.29	0.009
191.51	0.004
191.72	0.002
191.94	0.007
192.16	0.020
192.37	0.022
192.59	0.027
192.80	0.027
193.02	0.027
193.23	0.027
193.45	0.031
193.66	0.034
193.88	0.043
194.09	0.046
194.31	0.040
194.52	0.036
194.74	0.040
194.95	0.037
195.17	0.038
195.38	0.038
195.60	0.024
195.81	0.026
196.03	0.019
196.25	0.024
196.46	0.016
196.68	0.016
196.89	0.017
197.11	0.016
197.32	0.017
197.54	0.012
197.75	0.029
197.97	0.030
198.18	0.018
198.40	0.025
198.61	0.014
198.83	0.011
199.04	0.019
199.26	0.012
199.47	0.004
199.69	0.010
199.90	0.023
200.12	0.009
200.33	0.011
200.55	0.016
200.76	0.007
200.98	0.003
201.19	0.007
201.41	0.001
201.62	0.011
201.84	0.016
202.05	0.010
202.27	0.001
202.48	0.002
202.70	0.008
202.91	0.005
203.13	0.004
203.34	0.002
203.56	0.003
203.77	0.003
203.99	-0.009
204.20	-0.011
204.42	-0.011
204.63	-0.011
204.85	-0.012
205.06	-0.016
205.28	-0.007
205.49	-0.001
205.71	0.012
205.92	0.010
206.14	0.012
206.35	0.021
206.56	0.026
206.78	0.026
206.99	0.036
207.21	0.039
207.42	0.042
207.64	0.041
207.85	0.037
208.07	0.032
208.28	0.035
208.50	0.039
208.71	0.040
208.93	0.041
209.14	0.038
209.36	0.036
209.57	0.038
209.79	0.044
210.00	0.050
210.22	0.056
210.43	0.052
210.64	0.051
210.86	0.041
211.07	0.036
211.29	0.033
211.50	0.037
211.72	0.027
211.93	0.027
212.15	0.020
212.36	0.008
212.58	0.008
212.79	0.011
213.01	0.008
213.22	0.014
213.43	0.018
213.65	0.015
213.86	0.009
214.08	0.016
214.29	0.013
214.51	0.011
214.72	0.011
214.94	0.009
215.15	0.015
215.36	0.015
215.58	0.013
215.79	0.012
216.01	0.016
216.22	0.027
216.44	0.019
216.65	0.019
216.87	0.027
217.08	0.026
217.29	0.030
217.51	0.028
217.72	0.030
217.94	0.035
218.15	0.039
218.37	0.031
218.58	0.026
218.80	0.031
219.01	0.026
219.22	0.021
219.44	0.024
219.65	0.022
219.87	0.019
220.08	0.019
220.30	0.010
220.51	0.004
220.72	0.005
220.94	-0.000
221.15	-0.002
221.37	-0.001
221.58	-0.003
221.79	-0.001
222.01	-0.010
222.22	-0.011
222.44	-0.014
222.65	-0.013
222.87	-0.013
223.08	-0.013
223.29	-0.010
223.51	-0.010
223.72	-0.008
223.94	-0.007
224.15	-0.006
224.36	0.002
224.58	0.003
224.79	0.005
225.01	0.002
225.22	0.001
225.44	0.005
225.65	0.008
225.86	0.011
226.08	0.012
226.29	0.013
226.51	0.012
226.72	0.010
226.93	0.014
227.15	0.011
227.36	0.014
227.58	0.017
227.79	0.021
228.00	0.016
228.22	0.009
228.43	0.007
228.65	0.008
228.86	0.010
229.07	0.013
229.29	0.009
229.50	0.010
229.72	0.010
229.93	0.008
230.14	0.005
230.36	0.009
230.57	0.010
230.78	0.010
231.00	0.007
231.21	0.004
231.43	0.005
231.64	0.008
231.85	0.010
232.07	0.009
232.28	0.012
232.50	0.008
232.71	0.006
232.92	0.007
233.14	0.006
233.35	0.007
233.56	0.006
233.78	0.005
233.99	0.003
234.21	0.002
234.42	0.005
234.63	0.003
234.85	0.004
235.06	0.005
235.27	0.007
235.49	0.010
235.70	0.008
235.91	0.008
236.13	0.008
236.34	0.006
236.56	0.006
236.77	0.004
236.98	0.005
237.20	0.003
237.41	0.004
237.62	0.003
237.84	0.001
238.05	0.003
238.26	0.002
238.48	0.002
238.69	0.004
238.91	0.003
239.12	0.004
239.33	0.004
239.55	0.005
239.76	0.005
239.97	0.005
240.19	0.006
240.40	0.005
240.61	0.005
240.83	0.005
241.04	0.005
241.25	0.006
241.47	0.006
241.68	0.007
241.89	0.007
242.11	0.007
242.32	0.007
242.53	0.006
242.75	0.007
242.96	0.008
243.17	0.008
243.39	0.009
243.60	0.009
243.81	0.008
244.03	0.008
244.24	0.008
244.45	0.009
244.67	0.009
244.88	0.010
245.09	0.010
245.31	0.009
245.52	0.009
245.73	0.009
245.95	0.010
246.16	0.010
246.37	0.010
246.59	0.010
246.80	0.010
247.01	0.010
247.23	0.010
247.44	0.009
247.65	0.009
247.87	0.010
248.08	0.009
248.29	0.009
248.51	0.009
248.72	0.009
248.93	0.009
249.15	0.009
249.36	0.009
249.57	0.008
249.78	0.009
250.00	0.009
250.21	0.009
250.42	0.010
250.64	0.010
250.85	0.010
251.06	0.010
251.28	0.010
251.49	0.010
251.70	0.010
251.92	0.010
252.13	0.011
252.34	0.011
252.55	0.010
252.77	0.010
252.98	0.010
253.19	0.010
253.41	0.010
253.62	0.010
253.83	0.010
254.05	0.010
254.26	0.010
254.47	0.009
254.68	0.009
254.90	0.009
255.11	0.010
255.32	0.010
255.54	0.009
255.75	0.010
255.96	0.010
256.17	0.010
256.39	0.009
256.60	0.010
256.81	0.010
257.03	0.010
257.24	0.010
257.45	0.010
257.66	0.010
257.88	0.010
258.09	0.009
258.30	0.009
258.51	0.009
258.73	0.009
258.94	0.009
259.15	0.009
259.37	0.009
259.58	0.008
259.79	0.008
260.00	0.008
260.22	0.009
260.43	0.009
260.64	0.008
260.85	0.008
261.07	0.008
261.28	0.008
261.49	0.008
261.71	0.008
261.92	0.008
262.13	0.008
262.34	0.008
262.56	0.008
262.77	0.008
262.98	0.008
263.19	0.008
263.41	0.008
263.62	0.008
263.83	0.008
264.04	0.008
264.26	0.007
264.47	0.007
264.68	0.007
264.89	0.007
265.11	0.007
265.32	0.007
265.53	0.007
265.74	0.007
265.96	0.007
266.17	0.007
266.38	0.007
266.59	0.007
266.81	0.007
267.02	0.007
267.23	0.007
267.44	0.007
267.65	0.007
267.87	0.007
268.08	0.006
268.29	0.007
268.50	0.007
268.72	0.007
268.93	0.007
269.14	0.006
269.35	0.006
269.57	0.006
269.78	0.007
269.99	0.006
270.20	0.006
270.41	0.006
270.63	0.006
270.84	0.005
271.05	0.005
271.26	0.005
271.48	0.005
271.69	0.005
271.90	0.005
272.11	0.004
272.32	0.004
272.54	0.004
272.75	0.004
272.96	0.004
273.17	0.004
273.39	0.005
273.60	0.005
273.81	0.004
274.02	0.004
274.23	0.004
274.45	0.004
274.66	0.004
274.87	0.004
275.08	0.004
275.29	0.004
275.51	0.004
275.72	0.004
275.93	0.003
276.14	0.003
276.35	0.004
276.57	0.004
276.78	0.004
276.99	0.004
277.20	0.004
277.41	0.004
277.63	0.004
277.84	0.004
278.05	0.004
278.26	0.004
278.47	0.004
278.69	0.004
278.90	0.004
279.11	0.004
279.32	0.004
279.53	0.004
279.74	0.004
279.96	0.005
280.17	0.005
280.38	0.005
280.59	0.005
280.80	0.005
281.02	0.005
281.23	0.005
281.44	0.005
281.65	0.005
281.86	0.005
282.07	0.005
282.29	0.005
282.50	0.005
282.71	0.005
282.92	0.005
283.13	0.005
283.35	0.005
283.56	0.005
283.77	0.005
283.98	0.005
284.19	0.005
284.40	0.005
284.62	0.005
284.83	0.005
285.04	0.006
285.25	0.006
285.46	0.006
285.67	0.006
285.88	0.007
286.10	0.007
286.31	0.007
286.52	0.007
286.73	0.007
286.94	0.007
287.15	0.008
287.37	0.008
287.58	0.008
287.79	0.008
288.00	0.008
288.21	0.008
288.42	0.009
288.63	0.009
288.85	0.009
289.06	0.009
289.27	0.009
289.48	0.009
289.69	0.009
289.90	0.009
290.11	0.010
290.33	0.010
290.54	0.010
290.75	0.010
290.96	0.010
291.17	0.010
291.38	0.010
291.59	0.010
291.81	0.010
292.02	0.010
292.23	0.010
292.44	0.010
292.65	0.010
292.86	0.010
293.07	0.010
293.28	0.010
293.50	0.011
293.71	0.011
293.92	0.011
294.13	0.011
294.34	0.011
294.55	0.011
294.76	0.011
294.97	0.011
295.19	0.011
295.40	0.011
295.61	0.010
295.82	0.010
296.03	0.010
296.24	0.010
296.45	0.010
296.66	0.010
296.87	0.010
297.09	0.010
297.30	0.010
297.51	0.010
297.72	0.010
297.93	0.010
298.14	0.010
298.35	0.011
298.56	0.010
298.77	0.010
298.99	0.010
299.20	0.011
299.41	0.010
299.62	0.010
299.83	0.010
300.04	0.010
300.25	0.010
300.46	0.010
300.67	0.010
300.88	0.011
301.10	0.011
301.31	0.010
301.52	0.010
301.73	0.010
301.94	0.010
302.15	0.010
302.36	0.010
302.57	0.010
302.78	0.010
302.99	0.010
303.20	0.010
303.41	0.010
303.63	0.010
303.84	0.010
304.05	0.010
304.26	0.010
304.47	0.010
304.68	0.010
304.89	0.010
305.10	0.010
305.31	0.010
305.52	0.010
305.73	0.010
305.94	0.010
306.15	0.010
306.37	0.010
306.58	0.010
306.79	0.010
307.00	0.010
307.21	0.010
307.42	0.010
307.63	0.010
307.84	0.010
308.05	0.010
308.26	0.010
308.47	0.010
308.68	0.010
308.89	0.010
309.10	0.010
309.31	0.010
309.52	0.010
309.73	0.010
309.95	0.010
310.16	0.010
310.37	0.010
310.58	0.010
310.79	0.010
311.00	0.010
311.21	0.010
311.42	0.010
311.63	0.010
311.84	0.010
312.05	0.010
312.26	0.010
312.47	0.010
312.68	0.010
312.89	0.010
313.10	0.010
313.31	0.010
313.52	0.010
313.73	0.010
313.94	0.010
314.15	0.010
314.36	0.010
314.57	0.010
314.78	0.010
314.99	0.010
315.21	0.010
315.42	0.010
315.63	0.010
315.84	0.010
316.05	0.010
316.26	0.010
316.47	0.010
316.68	0.010
316.89	0.010
317.10	0.010
317.31	0.010
317.52	0.010
317.73	0.010
317.94	0.010
318.15	0.010
318.36	0.010
318.57	0.010
318.78	0.010
318.99	0.010
319.20	0.010
319.41	0.010
319.62	0.010
319.83	0.010
320.04	0.010
320.25	0.010
320.46	0.010
320.67	0.010
320.88	0.010
321.09	0.010
321.30	0.010
321.51	0.009
321.72	0.009
321.93	0.009
322.14	0.009
322.35	0.009
322.56	0.009
322.77	0.009
322.98	0.009
323.19	0.009
323.40	0.009
323.61	0.009
323.82	0.009
324.03	0.009
324.24	0.009
324.45	0.009
324.66	0.009
324.87	0.009
325.08	0.009
325.29	0.009
325.50	0.009
325.71	0.009
325.92	0.010
326.13	0.010
326.34	0.009
326.55	0.009
326.76	0.009
326.97	0.009
327.18	0.009
327.39	0.009
327.60	0.009
327.80	0.009
328.01	0.009
328.22	0.009
328.43	0.009
328.64	0.009
328.85	0.009
329.06	0.009
329.27	0.009
329.48	0.009
329.69	0.009
329.90	0.009
330.11	0.009
330.32	0.009
330.53	0.009
330.74	0.009
330.95	0.009
331.16	0.009
331.37	0.009
331.58	0.009
331.79	0.009
332.00	0.009
332.21	0.009
332.42	0.009
332.63	0.009
332.83	0.009
333.04	0.009
333.25	0.009
333.46	0.009
333.67	0.009
333.88	0.009
334.09	0.009
334.30	0.009
334.51	0.009
334.72	0.009
334.93	0.009
335.14	0.009
335.35	0.009
335.56	0.009
335.77	0.009
335.98	0.008
336.18	0.008
336.39	0.008
336.60	0.009
336.81	0.008
337.02	0.008
337.23	0.008
337.44	0.008
337.65	0.008
337.86	0.008
338.07	0.008
338.28	0.009
338.49	0.009
338.70	0.009
338.91	0.008
339.11	0.008
339.32	0.008
339.53	0.008
339.74	0.009
339.95	0.008
340.16	0.009
340.37	0.008
340.58	0.008
340.79	0.008
341.00	0.008
341.21	0.008
341.41	0.008
341.62	0.008
341.83	0.008
342.04	0.008
342.25	0.008
342.46	0.008
342.67	0.008
342.88	0.008
343.09	0.008
343.30	0.008
343.50	0.008
343.71	0.008
343.92	0.008
344.13	0.008
344.34	0.008
344.55	0.008
344.76	0.008
344.97	0.008
345.18	0.008
345.38	0.008
345.59	0.008
345.80	0.008
346.01	0.008
346.22	0.008
346.43	0.008
346.64	0.008
346.85	0.008
347.06	0.008
347.26	0.008
347.47	0.008
347.68	0.008
347.89	0.008
348.10	0.008
348.31	0.007
348.52	0.007
348.73	0.007
348.93	0.007
349.14	0.007
349.35	0.007
349.56	0.007
349.77	0.007
349.98	0.007
350.19	0.007
350.39	0.007
350.60	0.007
350.81	0.007
351.02	0.007
351.23	0.007
351.44	0.007
351.65	0.007
351.86	0.007
352.06	0.007
352.27	0.007
352.48	0.007
352.69	0.007
352.90	0.007
353.11	0.007
353.31	0.007
353.52	0.007
353.73	0.007
353.94	0.007
354.15	0.007
354.36	0.007
354.57	0.007
354.77	0.007
354.98	0.007
355.19	0.007
355.40	0.007
355.61	0.007
355.82	0.007
356.02	0.007
356.23	0.007
356.44	0.007
356.65	0.007
356.86	0.007
357.07	0.007
357.27	0.007
357.48	0.007
357.69	0.007
357.90	0.007
358.11	0.007
358.32	0.007
358.52	0.007
358.73	0.006
358.94	0.006
359.15	0.007
359.36	0.006
359.56	0.006
359.77	0.006
359.98	0.006
360.19	0.006
360.40	0.006
360.61	0.007
360.81	0.007
361.02	0.007
361.23	0.007
361.44	0.007
361.65	0.006
361.85	0.006
362.06	0.006
362.27	0.007
362.48	0.007
362.69	0.007
362.89	0.007
363.10	0.007
363.31	0.006
363.52	0.006
363.73	0.007
363.93	0.007
364.14	0.007
364.35	0.007
364.56	0.006
364.77	0.006
364.97	0.006
365.18	0.006
365.39	0.006
365.60	0.006
365.81	0.006
366.01	0.006
366.22	0.006
366.43	0.006
366.64	0.006
366.84	0.006
367.05	0.006
367.26	0.006
367.47	0.006
367.68	0.006
367.88	0.006
368.09	0.006
368.30	0.007
368.51	0.006
368.71	0.006
368.92	0.006
369.13	0.006
369.34	0.006
369.55	0.006
369.75	0.006
369.96	0.006
370.17	0.006
370.38	0.006
370.58	0.006
370.79	0.006
371.00	0.006
371.21	0.006
371.41	0.006
371.62	0.006
371.83	0.006
372.04	0.006
372.24	0.006
372.45	0.006
372.66	0.006
372.87	0.006
373.07	0.006
373.28	0.006
373.49	0.006
373.70	0.006
373.90	0.006
374.11	0.006
374.32	0.006
374.53	0.006
374.73	0.005
374.94	0.006
375.15	0.006
375.36	0.006
375.56	0.006
375.77	0.006
375.98	0.006
376.19	0.006
376.39	0.006
376.60	0.006
376.81	0.006
377.02	0.006
377.22	0.006
377.43	0.006
377.64	0.006
377.84	0.006
378.05	0.006
378.26	0.006
378.47	0.006
378.67	0.006
378.88	0.006
379.09	0.006
379.30	0.006
379.50	0.005
379.71	0.005
379.92	0.006
380.12	0.005
380.33	0.005
380.54	0.005
380.75	0.005
380.95	0.005
381.16	0.005
381.37	0.005
381.57	0.005
381.78	0.005
381.99	0.005
382.20	0.005
382.40	0.005
382.61	0.005
382.82	0.005
383.02	0.005
383.23	0.005
383.44	0.006
383.64	0.006
383.85	0.006
384.06	0.006
384.27	0.006
384.47	0.006
384.68	0.006
384.89	0.005
385.09	0.005
385.30	0.005
385.51	0.005
385.71	0.005
385.92	0.005
386.13	0.005
386.33	0.005
386.54	0.005
386.75	0.005
386.95	0.005
387.16	0.005
387.37	0.005
387.58	0.006
387.78	0.006
387.99	0.006
388.20	0.006
388.40	0.006
388.61	0.005
388.82	0.005
389.02	0.005
389.23	0.005
389.44	0.005
389.64	0.005
389.85	0.005
390.06	0.005
390.26	0.005
390.47	0.005
390.68	0.005
390.88	0.005
391.09	0.005
391.30	0.005
391.50	0.005
391.71	0.005
391.92	0.005
392.12	0.005
392.33	0.005
392.53	0.005
392.74	0.005
392.95	0.005
393.15	0.005
393.36	0.005
393.57	0.005
393.77	0.005
393.98	0.005
394.19	0.005
394.39	0.005
394.60	0.005
394.81	0.005
395.01	0.005
395.22	0.005
395.43	0.005
395.63	0.005
395.84	0.005
396.04	0.005
396.25	0.005
396.46	0.005
396.66	0.005
396.87	0.005
397.08	0.005
397.28	0.005
397.49	0.005
397.69	0.005
397.90	0.005
398.11	0.005
398.31	0.005
398.52	0.005
398.73	0.005
398.93	0.005
399.14	0.005
399.34	0.005
399.55	0.005
399.76	0.005
399.96	0.005
400.17	0.005
400.37	0.005
400.58	0.005
400.79	0.005
400.99	0.005
401.20	0.005
401.41	0.005
401.61	0.005
401.82	0.005
402.02	0.005
402.23	0.005
402.44	0.005
402.64	0.005
402.85	0.005
403.05	0.005
403.26	0.005
403.47	0.005
403.67	0.005
403.88	0.005
404.08	0.005
404.29	0.005
404.50	0.005
404.70	0.005
404.91	0.005
405.11	0.005
405.32	0.005
405.52	0.005
405.73	0.004
405.94	0.004
406.14	0.004
406.35	0.004
406.55	0.004
406.76	0.005
406.97	0.004
407.17	0.004
407.38	0.005
407.58	0.005
407.79	0.004
407.99	0.004
408.20	0.005
408.41	0.005
408.61	0.005
408.82	0.005
409.02	0.005
409.23	0.005
409.43	0.005
409.64	0.005
409.84	0.005
410.05	0.005
410.26	0.005
410.46	0.005
410.67	0.004
410.87	0.004
411.08	0.005
411.28	0.005
411.49	0.005
411.69	0.005
411.90	0.005
412.11	0.005
412.31	0.005
412.52	0.005
412.72	0.005
412.93	0.005
413.13	0.005
413.34	0.005
413.54	0.004
413.75	0.004
413.95	0.004
414.16	0.004
414.37	0.004
414.57	0.004
414.78	0.004
414.98	0.004
415.19	0.004
415.39	0.004
415.60	0.004
415.80	0.004
416.01	0.004
416.21	0.004
416.42	0.004
416.62	0.004
416.83	0.004
417.03	0.004
417.24	0.004
417.44	0.004
417.65	0.004
417.86	0.004
418.06	0.004
418.27	0.004
418.47	0.004
418.68	0.004
418.88	0.004
419.09	0.004
419.29	0.004
419.50	0.004
419.70	0.004
419.91	0.004
420.11	0.004
420.32	0.004
420.52	0.004
420.73	0.004
420.93	0.004
421.14	0.004
421.34	0.004
421.55	0.004
421.75	0.004
421.96	0.004
422.16	0.004
422.37	0.004
422.57	0.004
422.78	0.004
422.98	0.004
423.19	0.004
423.39	0.004
423.60	0.004
423.80	0.004
424.01	0.004
424.21	0.004
424.42	0.004
424.62	0.004
424.83	0.004
425.03	0.004
425.23	0.004
425.44	0.004
425.64	0.004
425.85	0.004
426.05	0.004
426.26	0.004
426.46	0.004
426.67	0.004
426.87	0.004
427.08	0.004
427.28	0.004
427.49	0.004
427.69	0.004
427.90	0.004
428.10	0.004
428.31	0.004
428.51	0.004
428.71	0.004
428.92	0.004
429.12	0.004
429.33	0.004
429.53	0.004
429.74	0.004
429.94	0.004
430.15	0.004
430.35	0.004
430.56	0.004
430.76	0.004
430.96	0.004
431.17	0.004
431.37	0.004
431.58	0.004
431.78	0.004
431.99	0.004
432.19	0.004
432.40	0.004
432.60	0.004
432.80	0.004
433.01	0.004
433.21	0.004
433.42	0.004
433.62	0.004
433.83	0.004
434.03	0.004
434.23	0.004
434.44	0.004
434.64	0.004
434.85	0.004
435.05	0.004
435.26	0.004
435.46	0.004
435.66	0.004
435.87	0.004
436.07	0.004
436.28	0.004
436.48	0.004
436.69	0.004
436.89	0.004
437.09	0.004
437.30	0.003
437.50	0.003
437.71	0.003
437.91	0.003
438.11	0.003
438.32	0.003
438.52	0.003
438.73	0.003
438.93	0.003
439.13	0.003
439.34	0.003
439.54	0.004
439.75	0.004
439.95	0.004
440.15	0.004
440.36	0.004
440.56	0.004
440.77	0.004
440.97	0.004
441.17	0.004
441.38	0.004
441.58	0.004
441.79	0.003
441.99	0.004
442.19	0.003
442.40	0.004
442.60	0.003
442.81	0.003
443.01	0.003
443.21	0.003
443.42	0.004
443.62	0.004
443.82	0.004
444.03	0.004
444.23	0.004
444.44	0.004
444.64	0.004
444.84	0.004
445.05	0.004
445.25	0.004
445.45	0.004
445.66	0.004
445.86	0.004
446.06	0.004
446.27	0.004
446.47	0.004
446.68	0.004
446.88	0.004
447.08	0.004
447.29	0.004
447.49	0.004
447.69	0.004
447.90	0.004
448.10	0.003
448.30	0.003
448.51	0.003
448.71	0.003
448.91	0.003
449.12	0.003
449.32	0.003
449.52	0.003
449.73	0.003
449.93	0.003
450.14	0.003
450.34	0.003
450.54	0.003
450.75	0.003
450.95	0.003
451.15	0.004
451.36	0.003
451.56	0.004
451.76	0.004
451.97	0.004
452.17	0.004
452.37	0.003
452.58	0.003
452.78	0.003
452.98	0.003
453.19	0.003
453.39	0.003
453.59	0.003
453.79	0.003
454.00	0.003
454.20	0.003
454.40	0.003
454.61	0.003
454.81	0.003
455.01	0.003
455.22	0.003
455.42	0.003
455.62	0.003
455.83	0.003
456.03	0.003
456.23	0.003
456.44	0.003
456.64	0.004
456.84	0.004
457.04	0.004
457.25	0.004
457.45	0.004
457.65	0.004
457.86	0.004
458.06	0.004
458.26	0.003
458.47	0.004
458.67	0.003
458.87	0.003
459.07	0.003
459.28	0.003
459.48	0.003
459.68	0.003
459.89	0.003
460.09	0.003
460.29	0.003
460.49	0.003
460.70	0.003
460.90	0.003
461.10	0.003
461.31	0.003
461.51	0.003
461.71	0.004
461.91	0.003
462.12	0.003
462.32	0.003
462.52	0.003
462.72	0.003
462.93	0.003
463.13	0.003
463.33	0.003
463.53	0.003
463.74	0.003
463.94	0.003
464.14	0.003
464.35	0.003
464.55	0.003
464.75	0.003
464.95	0.003
465.16	0.003
465.36	0.003
465.56	0.003
465.76	0.003
465.97	0.003
466.17	0.003
466.37	0.003
466.57	0.003
466.78	0.003
466.98	0.003
467.18	0.003
467.38	0.003
467.59	0.003
