SpectraSuite Data File
++++++++++++++++++++++++++++++++++++
Date: Fri Jun 19 13:03:50 CEST 2015
User: introlabs
Dark Spectrum Present: Yes
Reference Spectrum Present: Yes
Number of Sampled Component Spectra: 1
Spectrometers: USB4H08886
Integration Time (usec): 745692 (USB4H08886)
Spectra Averaged: 5 (USB4H08886)
Boxcar Smoothing: 5 (USB4H08886)
Correct for Electrical Dark: Yes (USB4H08886)
Strobe/Lamp Enabled: No (USB4H08886)
Correct for Detector Non-linearity: Yes (USB4H08886)
Correct for Stray Light: Yes (USB4H08886)
Number of Pixels in Processed Spectrum: 3648
>>>>>Begin Processed Spectral Data<<<<<
178.14	-0.000
178.36	-0.000
178.57	-0.000
178.79	-0.000
179.01	-0.000
179.22	-0.000
179.44	-0.000
179.65	-0.000
179.87	-0.000
180.08	-0.000
180.30	-0.000
180.52	-0.000
180.73	-0.000
180.95	-0.000
181.16	-0.000
181.38	-0.000
181.59	-0.000
181.81	-0.000
182.03	-0.000
182.24	-0.000
182.46	-0.000
182.67	-0.000
182.89	-0.000
183.10	-0.000
183.32	-0.000
183.54	-0.000
183.75	-0.000
183.97	-0.000
184.18	-0.000
184.40	-0.000
184.61	-0.000
184.83	-0.000
185.04	-0.000
185.26	-0.000
185.48	-0.000
185.69	-0.000
185.91	-0.000
186.12	-0.000
186.34	-0.000
186.55	-0.000
186.77	-0.000
186.98	-0.000
187.20	-0.000
187.42	-0.000
187.63	-0.000
187.85	-0.000
188.06	-0.000
188.28	-0.000
188.49	-0.000
188.71	-0.000
188.92	-0.000
189.14	-0.000
189.36	-0.000
189.57	-0.000
189.79	-0.000
190.00	-0.000
190.22	-0.000
190.43	-0.000
190.65	-0.000
190.86	-0.000
191.08	-0.000
191.29	-0.000
191.51	-0.000
191.72	-0.000
191.94	-0.000
192.16	-0.000
192.37	-0.000
192.59	-0.000
192.80	-0.000
193.02	-0.000
193.23	-0.000
193.45	-0.000
193.66	-0.000
193.88	-0.000
194.09	-0.000
194.31	-0.000
194.52	-0.000
194.74	-0.000
194.95	-0.000
195.17	-0.000
195.38	-0.000
195.60	-0.000
195.81	-0.000
196.03	-0.000
196.25	-0.000
196.46	-0.000
196.68	-0.000
196.89	-0.000
197.11	-0.000
197.32	-0.000
197.54	-0.000
197.75	-0.000
197.97	-0.000
198.18	-0.000
198.40	-0.000
198.61	-0.000
198.83	-0.000
199.04	-0.000
199.26	-0.000
199.47	-0.000
199.69	-0.000
199.90	-0.000
200.12	-0.000
200.33	-0.000
200.55	-0.000
200.76	-0.000
200.98	-0.000
201.19	-0.000
201.41	-0.000
201.62	-0.000
201.84	-0.000
202.05	-0.000
202.27	-0.000
202.48	-0.000
202.70	-0.000
202.91	-0.000
203.13	-0.000
203.34	-0.000
203.56	-0.000
203.77	-0.000
203.99	-0.000
204.20	-0.000
204.42	-0.000
204.63	-0.000
204.85	-0.000
205.06	-0.000
205.28	-0.000
205.49	-0.000
205.71	-0.000
205.92	-0.000
206.14	-0.000
206.35	-0.000
206.56	-0.000
206.78	-0.000
206.99	-0.000
207.21	-0.000
207.42	-0.000
207.64	-0.000
207.85	-0.000
208.07	-0.000
208.28	-0.000
208.50	-0.000
208.71	-0.000
208.93	-0.000
209.14	-0.000
209.36	-0.000
209.57	-0.000
209.79	-0.000
210.00	-0.000
210.22	-0.000
210.43	-0.000
210.64	-0.000
210.86	-0.000
211.07	-0.000
211.29	-0.000
211.50	-0.000
211.72	-0.000
211.93	-0.000
212.15	-0.000
212.36	-0.000
212.58	-0.000
212.79	-0.000
213.01	-0.000
213.22	-0.000
213.43	-0.000
213.65	-0.000
213.86	-0.000
214.08	-0.000
214.29	-0.000
214.51	-0.000
214.72	-0.000
214.94	-0.000
215.15	-0.000
215.36	-0.000
215.58	-0.000
215.79	-0.000
216.01	-0.000
216.22	-0.000
216.44	-0.000
216.65	-0.000
216.87	-0.000
217.08	-0.000
217.29	-0.000
217.51	-0.000
217.72	-0.000
217.94	-0.000
218.15	-0.000
218.37	-0.000
218.58	-0.000
218.80	-0.000
219.01	-0.000
219.22	-0.000
219.44	-0.000
219.65	-0.000
219.87	-0.000
220.08	-0.000
220.30	-0.000
220.51	-0.000
220.72	-0.000
220.94	-0.000
221.15	-0.000
221.37	-0.000
221.58	-0.000
221.79	-0.000
222.01	-0.000
222.22	-0.000
222.44	-0.000
222.65	-0.000
222.87	-0.000
223.08	-0.000
223.29	-0.000
223.51	-0.000
223.72	-0.000
223.94	-0.000
224.15	-0.000
224.36	-0.000
224.58	-0.000
224.79	-0.000
225.01	-0.000
225.22	-0.000
225.44	-0.000
225.65	-0.000
225.86	-0.000
226.08	-0.000
226.29	-0.000
226.51	-0.000
226.72	-0.000
226.93	-0.000
227.15	-0.000
227.36	-0.000
227.58	-0.000
227.79	-0.000
228.00	-0.000
228.22	-0.000
228.43	-0.000
228.65	-0.000
228.86	-0.000
229.07	-0.000
229.29	-0.000
229.50	-0.000
229.72	-0.000
229.93	-0.000
230.14	-0.000
230.36	-0.000
230.57	-0.000
230.78	-0.000
231.00	-0.000
231.21	-0.000
231.43	-0.000
231.64	-0.000
231.85	-0.000
232.07	-0.000
232.28	-0.000
232.50	-0.000
232.71	-0.000
232.92	-0.000
233.14	-0.000
233.35	-0.000
233.56	-0.000
233.78	-0.000
233.99	-0.000
234.21	-0.000
234.42	-0.000
234.63	-0.000
234.85	-0.000
235.06	-0.000
235.27	-0.000
235.49	-0.000
235.70	-0.000
235.91	-0.000
236.13	-0.000
236.34	-0.000
236.56	-0.000
236.77	-0.000
236.98	-0.000
237.20	-0.000
237.41	-0.000
237.62	-0.000
237.84	-0.000
238.05	-0.000
238.26	-0.000
238.48	-0.000
238.69	-0.000
238.91	-0.000
239.12	-0.000
239.33	-0.000
239.55	-0.000
239.76	-0.000
239.97	-0.000
240.19	-0.000
240.40	-0.000
240.61	-0.000
240.83	-0.000
241.04	-0.000
241.25	-0.000
241.47	-0.000
241.68	-0.000
241.89	-0.000
242.11	-0.000
242.32	-0.000
242.53	-0.000
242.75	-0.000
242.96	-0.000
243.17	-0.000
243.39	-0.000
243.60	-0.000
243.81	-0.000
244.03	-0.000
244.24	-0.000
244.45	-0.000
244.67	-0.000
244.88	-0.000
245.09	-0.000
245.31	-0.000
245.52	-0.000
245.73	-0.000
245.95	-0.000
246.16	-0.000
246.37	-0.000
246.59	-0.000
246.80	-0.000
247.01	-0.000
247.23	-0.000
247.44	-0.000
247.65	-0.000
247.87	-0.000
248.08	-0.000
248.29	-0.000
248.51	-0.000
248.72	-0.000
248.93	-0.000
249.15	-0.000
249.36	-0.000
249.57	-0.000
249.78	-0.000
250.00	-0.000
250.21	-0.000
250.42	-0.000
250.64	-0.000
250.85	-0.000
251.06	-0.000
251.28	-0.000
251.49	-0.000
251.70	-0.000
251.92	-0.000
252.13	-0.000
252.34	-0.000
252.55	-0.000
252.77	-0.000
252.98	-0.000
253.19	-0.000
253.41	-0.000
253.62	-0.000
253.83	-0.000
254.05	-0.000
254.26	-0.000
254.47	-0.000
254.68	-0.000
254.90	-0.000
255.11	-0.000
255.32	-0.000
255.54	-0.000
255.75	-0.000
255.96	-0.000
256.17	-0.000
256.39	-0.000
256.60	-0.000
256.81	-0.000
257.03	-0.000
257.24	-0.000
257.45	-0.000
257.66	-0.000
257.88	-0.000
258.09	-0.000
258.30	-0.000
258.51	-0.000
258.73	-0.000
258.94	-0.000
259.15	-0.000
259.37	-0.000
259.58	-0.000
259.79	-0.000
260.00	-0.000
260.22	-0.000
260.43	-0.000
260.64	-0.000
260.85	-0.000
261.07	-0.000
261.28	-0.000
261.49	-0.000
261.71	-0.000
261.92	-0.000
262.13	-0.000
262.34	-0.000
262.56	-0.000
262.77	-0.000
262.98	-0.000
263.19	-0.000
263.41	-0.000
263.62	-0.000
263.83	-0.000
264.04	-0.000
264.26	-0.000
264.47	-0.000
264.68	-0.000
264.89	-0.000
265.11	-0.000
265.32	-0.000
265.53	-0.000
265.74	-0.000
265.96	-0.000
266.17	-0.000
266.38	-0.000
266.59	-0.000
266.81	-0.000
267.02	-0.000
267.23	-0.000
267.44	-0.000
267.65	-0.000
267.87	-0.000
268.08	-0.000
268.29	-0.000
268.50	-0.000
268.72	-0.000
268.93	-0.000
269.14	-0.000
269.35	-0.000
269.57	-0.000
269.78	-0.000
269.99	-0.000
270.20	-0.000
270.41	-0.000
270.63	-0.000
270.84	-0.000
271.05	-0.000
271.26	-0.000
271.48	-0.000
271.69	-0.000
271.90	-0.000
272.11	-0.000
272.32	-0.000
272.54	-0.000
272.75	-0.000
272.96	-0.000
273.17	-0.000
273.39	-0.000
273.60	-0.000
273.81	-0.000
274.02	-0.000
274.23	-0.000
274.45	-0.000
274.66	-0.000
274.87	-0.000
275.08	-0.000
275.29	-0.000
275.51	-0.000
275.72	-0.000
275.93	-0.000
276.14	-0.000
276.35	-0.000
276.57	-0.000
276.78	-0.000
276.99	-0.000
277.20	-0.000
277.41	-0.000
277.63	-0.000
277.84	-0.000
278.05	-0.000
278.26	-0.000
278.47	-0.000
278.69	-0.000
278.90	-0.000
279.11	-0.000
279.32	-0.000
279.53	-0.000
279.74	-0.000
279.96	-0.000
280.17	-0.000
280.38	-0.000
280.59	-0.000
280.80	-0.000
281.02	-0.000
281.23	-0.000
281.44	-0.000
281.65	-0.000
281.86	-0.000
282.07	-0.000
282.29	-0.000
282.50	-0.000
282.71	-0.000
282.92	-0.000
283.13	-0.000
283.35	-0.000
283.56	-0.000
283.77	-0.000
283.98	-0.000
284.19	-0.000
284.40	-0.000
284.62	-0.000
284.83	-0.000
285.04	-0.000
285.25	-0.000
285.46	-0.000
285.67	-0.000
285.88	-0.000
286.10	-0.000
286.31	-0.000
286.52	-0.000
286.73	-0.000
286.94	-0.000
287.15	-0.000
287.37	-0.000
287.58	-0.000
287.79	-0.000
288.00	-0.000
288.21	-0.000
288.42	-0.000
288.63	-0.000
288.85	-0.000
289.06	-0.000
289.27	-0.000
289.48	-0.000
289.69	-0.000
289.90	-0.000
290.11	-0.000
290.33	-0.000
290.54	-0.000
290.75	-0.000
290.96	-0.000
291.17	-0.000
291.38	-0.000
291.59	-0.000
291.81	-0.000
292.02	-0.000
292.23	-0.000
292.44	-0.000
292.65	-0.000
292.86	-0.000
293.07	-0.000
293.28	-0.000
293.50	-0.000
293.71	-0.000
293.92	-0.000
294.13	-0.000
294.34	-0.000
294.55	-0.000
294.76	-0.000
294.97	-0.000
295.19	-0.000
295.40	-0.000
295.61	-0.000
295.82	-0.000
296.03	-0.000
296.24	-0.000
296.45	-0.000
296.66	-0.000
296.87	-0.000
297.09	-0.000
297.30	-0.000
297.51	2.829
297.72	2.466
297.93	-0.000
298.14	3.151
298.35	2.513
298.56	2.362
298.77	-0.000
298.99	-0.000
299.20	3.053
299.41	2.634
299.62	2.415
299.83	2.379
300.04	2.055
300.25	2.038
300.46	2.227
300.67	2.113
300.88	1.940
301.10	1.921
301.31	2.132
301.52	1.940
301.73	1.806
301.94	1.798
302.15	1.830
302.36	1.741
302.57	1.620
302.78	1.625
302.99	1.707
303.20	1.737
303.41	1.584
303.63	1.563
303.84	1.576
304.05	1.564
304.26	1.472
304.47	1.481
304.68	1.490
304.89	1.472
305.10	1.406
305.31	1.387
305.52	1.442
305.73	1.432
305.94	1.370
306.15	1.362
306.37	1.394
306.58	1.402
306.79	1.354
307.00	1.380
307.21	1.435
307.42	1.427
307.63	1.375
307.84	1.335
308.05	1.383
308.26	1.384
308.47	1.348
308.68	1.341
308.89	1.345
309.10	1.339
309.31	1.286
309.52	1.276
309.73	1.297
309.95	1.287
310.16	1.250
310.37	1.239
310.58	1.258
310.79	1.257
311.00	1.249
311.21	1.252
311.42	1.259
311.63	1.252
311.84	1.227
312.05	1.222
312.26	1.253
312.47	1.263
312.68	1.231
312.89	1.213
313.10	1.224
313.31	1.193
313.52	1.190
313.73	1.191
313.94	1.195
314.15	1.176
314.36	1.149
314.57	1.136
314.78	1.124
314.99	1.116
315.21	1.100
315.42	1.105
315.63	1.120
315.84	1.096
316.05	1.080
316.26	1.090
316.47	1.109
316.68	1.106
316.89	1.085
317.10	1.107
317.31	1.116
317.52	1.119
317.73	1.093
317.94	1.092
318.15	1.152
318.36	1.150
318.57	1.126
318.78	1.111
318.99	1.155
319.20	1.153
319.41	1.115
319.62	1.115
319.83	1.132
320.04	1.124
320.25	1.109
320.46	1.059
320.67	1.063
320.88	1.060
321.09	1.045
321.30	1.027
321.51	1.042
321.72	1.040
321.93	1.022
322.14	1.013
322.35	1.045
322.56	1.046
322.77	1.032
322.98	1.044
323.19	1.053
323.40	1.059
323.61	1.036
323.82	1.030
324.03	1.037
324.24	1.034
324.45	1.017
324.66	0.996
324.87	0.993
325.08	0.993
325.29	0.970
325.50	0.964
325.71	0.971
325.92	0.977
326.13	0.962
326.34	0.962
326.55	0.974
326.76	0.972
326.97	0.960
327.18	0.954
327.39	0.981
327.60	0.983
327.80	0.981
328.01	0.979
328.22	0.981
328.43	0.984
328.64	0.971
328.85	0.972
329.06	0.977
329.27	0.976
329.48	0.971
329.69	0.951
329.90	0.961
330.11	0.954
330.32	0.944
330.53	0.935
330.74	0.937
330.95	0.935
331.16	0.920
331.37	0.926
331.58	0.928
331.79	0.927
332.00	0.916
332.21	0.909
332.42	0.915
332.63	0.907
332.83	0.903
333.04	0.904
333.25	0.917
333.46	0.916
333.67	0.902
333.88	0.903
334.09	0.913
334.30	0.910
334.51	0.900
334.72	0.894
334.93	0.898
335.14	0.896
335.35	0.889
335.56	0.884
335.77	0.893
335.98	0.891
336.18	0.883
336.39	0.877
336.60	0.881
336.81	0.880
337.02	0.878
337.23	0.882
337.44	0.887
337.65	0.888
337.86	0.877
338.07	0.871
338.28	0.877
338.49	0.875
338.70	0.867
338.91	0.875
339.11	0.882
339.32	0.879
339.53	0.866
339.74	0.862
339.95	0.860
340.16	0.858
340.37	0.850
340.58	0.848
340.79	0.853
341.00	0.853
341.21	0.841
341.41	0.841
341.62	0.842
341.83	0.842
342.04	0.837
342.25	0.848
342.46	0.854
342.67	0.852
342.88	0.844
343.09	0.843
343.30	0.851
343.50	0.853
343.71	0.842
343.92	0.842
344.13	0.848
344.34	0.847
344.55	0.829
344.76	0.829
344.97	0.834
345.18	0.834
345.38	0.831
345.59	0.825
345.80	0.826
346.01	0.825
346.22	0.819
346.43	0.813
346.64	0.822
346.85	0.822
347.06	0.814
347.26	0.814
347.47	0.818
347.68	0.813
347.89	0.808
348.10	0.804
348.31	0.811
348.52	0.811
348.73	0.808
348.93	0.804
349.14	0.806
349.35	0.806
349.56	0.799
349.77	0.794
349.98	0.801
350.19	0.798
350.39	0.792
350.60	0.788
350.81	0.805
351.02	0.804
351.23	0.799
351.44	0.801
351.65	0.804
351.86	0.801
352.06	0.799
352.27	0.799
352.48	0.801
352.69	0.799
352.90	0.793
353.11	0.778
353.31	0.785
353.52	0.780
353.73	0.771
353.94	0.773
354.15	0.780
354.36	0.780
354.57	0.771
354.77	0.774
354.98	0.775
355.19	0.774
355.40	0.773
355.61	0.780
355.82	0.785
356.02	0.784
356.23	0.777
356.44	0.779
356.65	0.783
356.86	0.784
357.07	0.777
357.27	0.781
357.48	0.784
357.69	0.778
357.90	0.763
358.11	0.760
358.32	0.765
358.52	0.767
358.73	0.756
358.94	0.758
359.15	0.763
359.36	0.764
359.56	0.758
359.77	0.755
359.98	0.763
360.19	0.763
360.40	0.759
360.61	0.759
360.81	0.758
361.02	0.759
361.23	0.750
361.44	0.749
361.65	0.750
361.85	0.750
362.06	0.747
362.27	0.749
362.48	0.749
362.69	0.752
362.89	0.745
363.10	0.747
363.31	0.752
363.52	0.756
363.73	0.751
363.93	0.751
364.14	0.754
364.35	0.756
364.56	0.746
364.77	0.748
364.97	0.750
365.18	0.752
365.39	0.745
365.60	0.742
365.81	0.742
366.01	0.741
366.22	0.739
366.43	0.738
366.64	0.740
366.84	0.745
367.05	0.741
367.26	0.740
367.47	0.743
367.68	0.743
367.88	0.740
368.09	0.738
368.30	0.740
368.51	0.739
368.71	0.739
368.92	0.742
369.13	0.741
369.34	0.740
369.55	0.739
369.75	0.739
369.96	0.747
370.17	0.747
370.38	0.743
370.58	0.743
370.79	0.749
371.00	0.748
371.21	0.739
371.41	0.744
371.62	0.749
371.83	0.743
372.04	0.740
372.24	0.733
372.45	0.735
372.66	0.735
372.87	0.731
373.07	0.727
373.28	0.728
373.49	0.732
373.70	0.722
373.90	0.721
374.11	0.732
374.32	0.731
374.53	0.729
374.73	0.730
374.94	0.733
375.15	0.733
375.36	0.730
375.56	0.739
375.77	0.740
375.98	0.740
376.19	0.736
376.39	0.729
376.60	0.734
376.81	0.734
377.02	0.730
377.22	0.729
377.43	0.728
377.64	0.729
377.84	0.719
378.05	0.723
378.26	0.729
378.47	0.729
378.67	0.725
378.88	0.723
379.09	0.723
379.30	0.723
379.50	0.720
379.71	0.723
379.92	0.726
380.12	0.725
380.33	0.716
380.54	0.713
380.75	0.720
380.95	0.719
381.16	0.717
381.37	0.717
381.57	0.719
381.78	0.720
381.99	0.719
382.20	0.718
382.40	0.722
382.61	0.722
382.82	0.718
383.02	0.710
383.23	0.715
383.44	0.714
383.64	0.712
383.85	0.715
384.06	0.718
384.27	0.715
384.47	0.712
384.68	0.713
384.89	0.719
385.09	0.719
385.30	0.718
385.51	0.716
385.71	0.720
385.92	0.721
386.13	0.718
386.33	0.720
386.54	0.721
386.75	0.720
386.95	0.715
387.16	0.709
387.37	0.712
387.58	0.712
387.78	0.710
387.99	0.707
388.20	0.709
388.40	0.707
388.61	0.703
388.82	0.706
389.02	0.708
389.23	0.708
389.44	0.707
389.64	0.707
389.85	0.718
390.06	0.718
390.26	0.718
390.47	0.717
390.68	0.720
390.88	0.717
391.09	0.712
391.30	0.712
391.50	0.712
391.71	0.711
391.92	0.707
392.12	0.700
392.33	0.700
392.53	0.700
392.74	0.700
392.95	0.699
393.15	0.703
393.36	0.704
393.57	0.702
393.77	0.705
393.98	0.708
394.19	0.707
394.39	0.706
394.60	0.708
394.81	0.709
395.01	0.707
395.22	0.704
395.43	0.705
395.63	0.710
395.84	0.712
396.04	0.707
396.25	0.708
396.46	0.710
396.66	0.708
396.87	0.705
397.08	0.702
397.28	0.704
397.49	0.705
397.69	0.701
397.90	0.695
398.11	0.696
398.31	0.697
398.52	0.693
398.73	0.693
398.93	0.693
399.14	0.692
399.34	0.690
399.55	0.691
399.76	0.691
399.96	0.692
400.17	0.691
400.37	0.689
400.58	0.696
400.79	0.698
400.99	0.696
401.20	0.702
401.41	0.704
401.61	0.705
401.82	0.709
402.02	0.709
402.23	0.709
402.44	0.709
402.64	0.708
402.85	0.702
403.05	0.702
403.26	0.700
403.47	0.694
403.67	0.693
403.88	0.693
404.08	0.688
404.29	0.686
404.50	0.686
404.70	0.687
404.91	0.686
405.11	0.682
405.32	0.683
405.52	0.683
405.73	0.683
405.94	0.680
406.14	0.683
406.35	0.686
406.55	0.686
406.76	0.683
406.97	0.684
407.17	0.687
407.38	0.687
407.58	0.684
407.79	0.687
407.99	0.690
408.20	0.691
408.41	0.686
408.61	0.684
408.82	0.685
409.02	0.685
409.23	0.683
409.43	0.681
409.64	0.682
409.84	0.682
410.05	0.678
410.26	0.676
410.46	0.675
410.67	0.675
410.87	0.676
411.08	0.678
411.28	0.679
411.49	0.681
411.69	0.679
411.90	0.681
412.11	0.683
412.31	0.684
412.52	0.682
412.72	0.683
412.93	0.685
413.13	0.684
413.34	0.680
413.54	0.681
413.75	0.683
413.95	0.682
414.16	0.678
414.37	0.681
414.57	0.681
414.78	0.684
414.98	0.681
415.19	0.682
415.39	0.680
415.60	0.683
415.80	0.682
416.01	0.680
416.21	0.682
416.42	0.683
416.62	0.677
416.83	0.678
417.03	0.677
417.24	0.678
417.44	0.675
417.65	0.674
417.86	0.675
418.06	0.673
418.27	0.671
418.47	0.672
418.68	0.673
418.88	0.674
419.09	0.672
419.29	0.672
419.50	0.673
419.70	0.673
419.91	0.671
420.11	0.668
420.32	0.671
420.52	0.670
420.73	0.669
420.93	0.670
421.14	0.672
421.34	0.671
421.55	0.667
421.75	0.667
421.96	0.669
422.16	0.669
422.37	0.668
422.57	0.666
422.78	0.667
422.98	0.664
423.19	0.662
423.39	0.660
423.60	0.664
423.80	0.666
424.01	0.664
424.21	0.666
424.42	0.668
424.62	0.668
424.83	0.666
425.03	0.667
425.23	0.669
425.44	0.669
425.64	0.669
425.85	0.668
426.05	0.669
426.26	0.670
426.46	0.666
426.67	0.665
426.87	0.670
427.08	0.671
427.28	0.668
427.49	0.669
427.69	0.670
427.90	0.669
428.10	0.666
428.31	0.666
428.51	0.667
428.71	0.667
428.92	0.667
429.12	0.665
429.33	0.666
429.53	0.670
429.74	0.674
429.94	0.674
430.15	0.674
430.35	0.674
430.56	0.671
430.76	0.670
430.96	0.672
431.17	0.670
431.37	0.666
431.58	0.665
431.78	0.661
431.99	0.655
432.19	0.657
432.40	0.658
432.60	0.660
432.80	0.662
433.01	0.660
433.21	0.661
433.42	0.663
433.62	0.664
433.83	0.663
434.03	0.666
434.23	0.669
434.44	0.668
434.64	0.665
434.85	0.670
435.05	0.672
435.26	0.672
435.46	0.669
435.66	0.669
435.87	0.670
436.07	0.670
436.28	0.666
436.48	0.663
436.69	0.663
436.89	0.663
437.09	0.657
437.30	0.655
437.50	0.656
437.71	0.668
437.91	0.667
438.11	0.668
438.32	0.672
438.52	0.673
438.73	0.672
438.93	0.670
439.13	0.670
439.34	0.674
439.54	0.672
439.75	0.671
439.95	0.661
440.15	0.666
440.36	0.664
440.56	0.661
440.77	0.662
440.97	0.662
441.17	0.661
441.38	0.662
441.58	0.660
441.79	0.660
441.99	0.658
442.19	0.658
442.40	0.656
442.60	0.656
442.81	0.654
443.01	0.655
443.21	0.656
443.42	0.655
443.62	0.654
443.82	0.653
444.03	0.655
444.23	0.656
444.44	0.655
444.64	0.654
444.84	0.655
445.05	0.655
445.25	0.652
445.45	0.652
445.66	0.655
445.86	0.654
446.06	0.655
446.27	0.654
446.47	0.658
446.68	0.656
446.88	0.655
447.08	0.654
447.29	0.657
447.49	0.657
447.69	0.656
447.90	0.655
448.10	0.660
448.30	0.658
448.51	0.659
448.71	0.656
448.91	0.659
449.12	0.658
449.32	0.659
449.52	0.658
449.73	0.661
449.93	0.661
450.14	0.661
450.34	0.660
450.54	0.663
450.75	0.659
450.95	0.659
451.15	0.658
451.36	0.661
451.56	0.658
451.76	0.657
451.97	0.654
452.17	0.656
452.37	0.654
452.58	0.650
452.78	0.651
452.98	0.654
453.19	0.653
453.39	0.654
453.59	0.653
453.79	0.654
454.00	0.655
454.20	0.654
454.40	0.654
454.61	0.657
454.81	0.657
455.01	0.656
455.22	0.656
455.42	0.658
455.62	0.656
455.83	0.655
456.03	0.658
456.23	0.660
456.44	0.661
456.64	0.659
456.84	0.659
457.04	0.660
457.25	0.659
457.45	0.656
457.65	0.655
457.86	0.656
458.06	0.654
458.26	0.649
458.47	0.648
458.67	0.650
458.87	0.650
459.07	0.647
459.28	0.650
459.48	0.653
459.68	0.653
