SpectraSuite Data File
++++++++++++++++++++++++++++++++++++
Date: Fri Jun 19 13:10:01 CEST 2015
User: introlabs
Dark Spectrum Present: Yes
Reference Spectrum Present: Yes
Number of Sampled Component Spectra: 1
Spectrometers: USB4H08886
Integration Time (usec): 745692 (USB4H08886)
Spectra Averaged: 5 (USB4H08886)
Boxcar Smoothing: 5 (USB4H08886)
Correct for Electrical Dark: Yes (USB4H08886)
Strobe/Lamp Enabled: No (USB4H08886)
Correct for Detector Non-linearity: Yes (USB4H08886)
Correct for Stray Light: Yes (USB4H08886)
Number of Pixels in Processed Spectrum: 3648
>>>>>Begin Processed Spectral Data<<<<<
178.14	-0.000
178.36	-0.000
178.57	-0.000
178.79	-0.000
179.01	-0.000
179.22	-0.000
179.44	-0.000
179.65	-0.000
179.87	-0.000
180.08	-0.000
180.30	-0.000
180.52	-0.000
180.73	-0.000
180.95	-0.000
181.16	-0.000
181.38	-0.000
181.59	-0.000
181.81	-0.000
182.03	-0.000
182.24	-0.000
182.46	-0.000
182.67	-0.000
182.89	-0.000
183.10	-0.000
183.32	-0.000
183.54	-0.000
183.75	-0.000
183.97	-0.000
184.18	-0.000
184.40	-0.000
184.61	-0.000
184.83	-0.000
185.04	-0.000
185.26	-0.000
185.48	-0.000
185.69	-0.000
185.91	-0.000
186.12	-0.000
186.34	-0.000
186.55	-0.000
186.77	-0.000
186.98	-0.000
187.20	-0.000
187.42	-0.000
187.63	-0.000
187.85	-0.000
188.06	-0.000
188.28	-0.000
188.49	-0.000
188.71	-0.000
188.92	-0.000
189.14	-0.000
189.36	-0.000
189.57	-0.000
189.79	-0.000
190.00	-0.000
190.22	-0.000
190.43	-0.000
190.65	-0.000
190.86	-0.000
191.08	-0.000
191.29	-0.000
191.51	-0.000
191.72	-0.000
191.94	-0.000
192.16	-0.000
192.37	-0.000
192.59	-0.000
192.80	-0.000
193.02	-0.000
193.23	-0.000
193.45	-0.000
193.66	-0.000
193.88	-0.000
194.09	-0.000
194.31	-0.000
194.52	-0.000
194.74	-0.000
194.95	-0.000
195.17	-0.000
195.38	-0.000
195.60	-0.000
195.81	-0.000
196.03	-0.000
196.25	-0.000
196.46	-0.000
196.68	-0.000
196.89	-0.000
197.11	-0.000
197.32	-0.000
197.54	-0.000
197.75	-0.000
197.97	-0.000
198.18	-0.000
198.40	-0.000
198.61	-0.000
198.83	-0.000
199.04	-0.000
199.26	-0.000
199.47	-0.000
199.69	-0.000
199.90	-0.000
200.12	-0.000
200.33	-0.000
200.55	-0.000
200.76	-0.000
200.98	-0.000
201.19	-0.000
201.41	-0.000
201.62	-0.000
201.84	-0.000
202.05	-0.000
202.27	-0.000
202.48	-0.000
202.70	-0.000
202.91	-0.000
203.13	-0.000
203.34	-0.000
203.56	-0.000
203.77	-0.000
203.99	-0.000
204.20	-0.000
204.42	-0.000
204.63	-0.000
204.85	-0.000
205.06	-0.000
205.28	-0.000
205.49	-0.000
205.71	-0.000
205.92	-0.000
206.14	-0.000
206.35	-0.000
206.56	-0.000
206.78	-0.000
206.99	-0.000
207.21	-0.000
207.42	-0.000
207.64	-0.000
207.85	-0.000
208.07	-0.000
208.28	-0.000
208.50	-0.000
208.71	-0.000
208.93	-0.000
209.14	-0.000
209.36	-0.000
209.57	-0.000
209.79	-0.000
210.00	-0.000
210.22	-0.000
210.43	-0.000
210.64	-0.000
210.86	-0.000
211.07	-0.000
211.29	-0.000
211.50	-0.000
211.72	-0.000
211.93	-0.000
212.15	-0.000
212.36	-0.000
212.58	-0.000
212.79	-0.000
213.01	-0.000
213.22	-0.000
213.43	-0.000
213.65	-0.000
213.86	-0.000
214.08	-0.000
214.29	-0.000
214.51	-0.000
214.72	-0.000
214.94	-0.000
215.15	-0.000
215.36	-0.000
215.58	-0.000
215.79	-0.000
216.01	-0.000
216.22	-0.000
216.44	-0.000
216.65	-0.000
216.87	-0.000
217.08	-0.000
217.29	-0.000
217.51	-0.000
217.72	-0.000
217.94	-0.000
218.15	-0.000
218.37	-0.000
218.58	-0.000
218.80	-0.000
219.01	-0.000
219.22	-0.000
219.44	-0.000
219.65	-0.000
219.87	-0.000
220.08	-0.000
220.30	-0.000
220.51	-0.000
220.72	-0.000
220.94	-0.000
221.15	-0.000
221.37	-0.000
221.58	-0.000
221.79	-0.000
222.01	-0.000
222.22	-0.000
222.44	-0.000
222.65	-0.000
222.87	-0.000
223.08	-0.000
223.29	-0.000
223.51	-0.000
223.72	-0.000
223.94	-0.000
224.15	-0.000
224.36	-0.000
224.58	-0.000
224.79	-0.000
225.01	-0.000
225.22	-0.000
225.44	-0.000
225.65	-0.000
225.86	-0.000
226.08	-0.000
226.29	-0.000
226.51	-0.000
226.72	-0.000
226.93	-0.000
227.15	-0.000
227.36	-0.000
227.58	-0.000
227.79	-0.000
228.00	-0.000
228.22	-0.000
228.43	-0.000
228.65	-0.000
228.86	-0.000
229.07	-0.000
229.29	-0.000
229.50	-0.000
229.72	-0.000
229.93	-0.000
230.14	-0.000
230.36	-0.000
230.57	-0.000
230.78	-0.000
231.00	-0.000
231.21	-0.000
231.43	-0.000
231.64	-0.000
231.85	-0.000
232.07	-0.000
232.28	-0.000
232.50	-0.000
232.71	-0.000
232.92	-0.000
233.14	-0.000
233.35	-0.000
233.56	-0.000
233.78	-0.000
233.99	-0.000
234.21	-0.000
234.42	-0.000
234.63	-0.000
234.85	-0.000
235.06	-0.000
235.27	-0.000
235.49	-0.000
235.70	-0.000
235.91	-0.000
236.13	-0.000
236.34	-0.000
236.56	-0.000
236.77	-0.000
236.98	-0.000
237.20	-0.000
237.41	-0.000
237.62	-0.000
237.84	-0.000
238.05	-0.000
238.26	-0.000
238.48	-0.000
238.69	-0.000
238.91	-0.000
239.12	-0.000
239.33	-0.000
239.55	-0.000
239.76	-0.000
239.97	-0.000
240.19	-0.000
240.40	-0.000
240.61	-0.000
240.83	-0.000
241.04	-0.000
241.25	-0.000
241.47	-0.000
241.68	-0.000
241.89	-0.000
242.11	-0.000
242.32	-0.000
242.53	-0.000
242.75	-0.000
242.96	-0.000
243.17	-0.000
243.39	-0.000
243.60	-0.000
243.81	-0.000
244.03	-0.000
244.24	-0.000
244.45	-0.000
244.67	-0.000
244.88	-0.000
245.09	-0.000
245.31	-0.000
245.52	-0.000
245.73	-0.000
245.95	-0.000
246.16	-0.000
246.37	-0.000
246.59	-0.000
246.80	-0.000
247.01	-0.000
247.23	-0.000
247.44	-0.000
247.65	-0.000
247.87	-0.000
248.08	-0.000
248.29	-0.000
248.51	-0.000
248.72	-0.000
248.93	-0.000
249.15	-0.000
249.36	-0.000
249.57	-0.000
249.78	-0.000
250.00	-0.000
250.21	-0.000
250.42	-0.000
250.64	-0.000
250.85	-0.000
251.06	-0.000
251.28	-0.000
251.49	-0.000
251.70	-0.000
251.92	-0.000
252.13	-0.000
252.34	-0.000
252.55	-0.000
252.77	-0.000
252.98	-0.000
253.19	-0.000
253.41	-0.000
253.62	-0.000
253.83	-0.000
254.05	-0.000
254.26	-0.000
254.47	-0.000
254.68	-0.000
254.90	-0.000
255.11	-0.000
255.32	-0.000
255.54	-0.000
255.75	-0.000
255.96	-0.000
256.17	-0.000
256.39	-0.000
256.60	-0.000
256.81	-0.000
257.03	-0.000
257.24	-0.000
257.45	-0.000
257.66	-0.000
257.88	-0.000
258.09	-0.000
258.30	-0.000
258.51	-0.000
258.73	-0.000
258.94	-0.000
259.15	-0.000
259.37	-0.000
259.58	-0.000
259.79	-0.000
260.00	-0.000
260.22	-0.000
260.43	-0.000
260.64	-0.000
260.85	-0.000
261.07	-0.000
261.28	-0.000
261.49	-0.000
261.71	-0.000
261.92	-0.000
262.13	-0.000
262.34	-0.000
262.56	-0.000
262.77	-0.000
262.98	-0.000
263.19	-0.000
263.41	-0.000
263.62	-0.000
263.83	-0.000
264.04	-0.000
264.26	-0.000
264.47	-0.000
264.68	-0.000
264.89	-0.000
265.11	-0.000
265.32	-0.000
265.53	-0.000
265.74	-0.000
265.96	-0.000
266.17	-0.000
266.38	-0.000
266.59	-0.000
266.81	-0.000
267.02	-0.000
267.23	-0.000
267.44	-0.000
267.65	-0.000
267.87	-0.000
268.08	-0.000
268.29	-0.000
268.50	-0.000
268.72	-0.000
268.93	-0.000
269.14	-0.000
269.35	-0.000
269.57	-0.000
269.78	-0.000
269.99	-0.000
270.20	-0.000
270.41	-0.000
270.63	-0.000
270.84	-0.000
271.05	-0.000
271.26	-0.000
271.48	-0.000
271.69	-0.000
271.90	-0.000
272.11	-0.000
272.32	-0.000
272.54	-0.000
272.75	-0.000
272.96	-0.000
273.17	-0.000
273.39	-0.000
273.60	-0.000
273.81	-0.000
274.02	-0.000
274.23	-0.000
274.45	-0.000
274.66	-0.000
274.87	-0.000
275.08	-0.000
275.29	-0.000
275.51	-0.000
275.72	-0.000
275.93	-0.000
276.14	-0.000
276.35	-0.000
276.57	-0.000
276.78	-0.000
276.99	-0.000
277.20	-0.000
277.41	-0.000
277.63	-0.000
277.84	-0.000
278.05	-0.000
278.26	-0.000
278.47	-0.000
278.69	-0.000
278.90	-0.000
279.11	-0.000
279.32	-0.000
279.53	-0.000
279.74	-0.000
279.96	-0.000
280.17	-0.000
280.38	-0.000
280.59	-0.000
280.80	-0.000
281.02	-0.000
281.23	-0.000
281.44	-0.000
281.65	-0.000
281.86	-0.000
282.07	-0.000
282.29	-0.000
282.50	-0.000
282.71	-0.000
282.92	-0.000
283.13	-0.000
283.35	-0.000
283.56	-0.000
283.77	-0.000
283.98	-0.000
284.19	-0.000
284.40	-0.000
284.62	-0.000
284.83	-0.000
285.04	-0.000
285.25	-0.000
285.46	-0.000
285.67	-0.000
285.88	-0.000
286.10	-0.000
286.31	-0.000
286.52	-0.000
286.73	-0.000
286.94	-0.000
287.15	-0.000
287.37	-0.000
287.58	-0.000
287.79	-0.000
288.00	-0.000
288.21	-0.000
288.42	-0.000
288.63	-0.000
288.85	-0.000
289.06	-0.000
289.27	-0.000
289.48	-0.000
289.69	-0.000
289.90	-0.000
290.11	-0.000
290.33	-0.000
290.54	-0.000
290.75	-0.000
290.96	-0.000
291.17	-0.000
291.38	-0.000
291.59	-0.000
291.81	-0.000
292.02	-0.000
292.23	-0.000
292.44	-0.000
292.65	-0.000
292.86	-0.000
293.07	-0.000
293.28	-0.000
293.50	-0.000
293.71	-0.000
293.92	-0.000
294.13	-0.000
294.34	-0.000
294.55	-0.000
294.76	-0.000
294.97	-0.000
295.19	-0.000
295.40	-0.000
295.61	-0.000
295.82	-0.000
296.03	-0.000
296.24	-0.000
296.45	-0.000
296.66	-0.000
296.87	-0.000
297.09	-0.000
297.30	-0.000
297.51	2.680
297.72	2.422
297.93	-0.000
298.14	2.911
298.35	2.513
298.56	2.358
298.77	-0.000
298.99	-0.000
299.20	3.118
299.41	2.839
299.62	2.548
299.83	2.419
300.04	2.104
300.25	2.077
300.46	2.248
300.67	2.116
300.88	1.922
301.10	1.942
301.31	2.190
301.52	1.967
301.73	1.812
301.94	1.809
302.15	1.853
302.36	1.754
302.57	1.627
302.78	1.634
302.99	1.712
303.20	1.756
303.41	1.583
303.63	1.549
303.84	1.568
304.05	1.558
304.26	1.468
304.47	1.475
304.68	1.479
304.89	1.468
305.10	1.409
305.31	1.389
305.52	1.442
305.73	1.433
305.94	1.377
306.15	1.361
306.37	1.396
306.58	1.402
306.79	1.362
307.00	1.390
307.21	1.445
307.42	1.437
307.63	1.386
307.84	1.344
308.05	1.392
308.26	1.395
308.47	1.364
308.68	1.356
308.89	1.356
309.10	1.347
309.31	1.296
309.52	1.280
309.73	1.299
309.95	1.291
310.16	1.254
310.37	1.244
310.58	1.264
310.79	1.261
311.00	1.255
311.21	1.258
311.42	1.264
311.63	1.256
311.84	1.234
312.05	1.230
312.26	1.259
312.47	1.274
312.68	1.240
312.89	1.221
313.10	1.229
313.31	1.196
313.52	1.196
313.73	1.195
313.94	1.201
314.15	1.179
314.36	1.152
314.57	1.142
314.78	1.129
314.99	1.122
315.21	1.108
315.42	1.113
315.63	1.131
315.84	1.105
316.05	1.089
316.26	1.096
316.47	1.118
316.68	1.114
316.89	1.093
317.10	1.114
317.31	1.121
317.52	1.122
317.73	1.097
317.94	1.095
318.15	1.147
318.36	1.144
318.57	1.124
318.78	1.112
318.99	1.153
319.20	1.149
319.41	1.109
319.62	1.110
319.83	1.125
320.04	1.119
320.25	1.100
320.46	1.063
320.67	1.067
320.88	1.062
321.09	1.044
321.30	1.029
321.51	1.044
321.72	1.043
321.93	1.025
322.14	1.016
322.35	1.045
322.56	1.047
322.77	1.032
322.98	1.044
323.19	1.053
323.40	1.060
323.61	1.034
323.82	1.028
324.03	1.034
324.24	1.030
324.45	1.017
324.66	0.997
324.87	0.995
325.08	0.995
325.29	0.973
325.50	0.971
325.71	0.977
325.92	0.987
326.13	0.973
326.34	0.974
326.55	0.985
326.76	0.983
326.97	0.971
327.18	0.964
327.39	0.991
327.60	0.991
327.80	0.984
328.01	0.982
328.22	0.982
328.43	0.985
328.64	0.969
328.85	0.972
329.06	0.975
329.27	0.975
329.48	0.970
329.69	0.950
329.90	0.962
330.11	0.956
330.32	0.948
330.53	0.942
330.74	0.942
330.95	0.941
331.16	0.925
331.37	0.933
331.58	0.934
331.79	0.932
332.00	0.923
332.21	0.917
332.42	0.920
332.63	0.911
332.83	0.905
333.04	0.909
333.25	0.923
333.46	0.920
333.67	0.905
333.88	0.906
334.09	0.917
334.30	0.913
334.51	0.903
334.72	0.899
334.93	0.903
335.14	0.902
335.35	0.892
335.56	0.887
335.77	0.897
335.98	0.896
336.18	0.890
336.39	0.882
336.60	0.886
336.81	0.884
337.02	0.883
337.23	0.888
337.44	0.892
337.65	0.893
337.86	0.882
338.07	0.877
338.28	0.882
338.49	0.879
338.70	0.871
338.91	0.879
339.11	0.887
339.32	0.882
339.53	0.869
339.74	0.865
339.95	0.863
340.16	0.861
340.37	0.853
340.58	0.851
340.79	0.856
341.00	0.856
341.21	0.843
341.41	0.843
341.62	0.845
341.83	0.845
342.04	0.839
342.25	0.850
342.46	0.857
342.67	0.856
342.88	0.848
343.09	0.846
343.30	0.852
343.50	0.855
343.71	0.846
343.92	0.843
344.13	0.849
344.34	0.848
344.55	0.831
344.76	0.829
344.97	0.833
345.18	0.831
345.38	0.830
345.59	0.826
345.80	0.825
346.01	0.823
346.22	0.820
346.43	0.814
346.64	0.824
346.85	0.823
347.06	0.816
347.26	0.816
347.47	0.820
347.68	0.815
347.89	0.811
348.10	0.807
348.31	0.815
348.52	0.813
348.73	0.811
348.93	0.806
349.14	0.810
349.35	0.808
349.56	0.802
349.77	0.797
349.98	0.804
350.19	0.800
350.39	0.795
350.60	0.791
350.81	0.807
351.02	0.805
351.23	0.800
351.44	0.803
351.65	0.808
351.86	0.805
352.06	0.802
352.27	0.802
352.48	0.804
352.69	0.803
352.90	0.798
353.11	0.784
353.31	0.792
353.52	0.789
353.73	0.780
353.94	0.782
354.15	0.788
354.36	0.789
354.57	0.780
354.77	0.782
354.98	0.782
355.19	0.781
355.40	0.781
355.61	0.787
355.82	0.791
356.02	0.789
356.23	0.780
356.44	0.782
356.65	0.785
356.86	0.786
357.07	0.780
357.27	0.783
357.48	0.786
357.69	0.781
357.90	0.766
358.11	0.762
358.32	0.766
358.52	0.769
358.73	0.759
358.94	0.761
359.15	0.765
359.36	0.765
359.56	0.760
359.77	0.757
359.98	0.763
360.19	0.763
360.40	0.760
360.61	0.760
360.81	0.759
361.02	0.760
361.23	0.752
361.44	0.751
361.65	0.751
361.85	0.751
362.06	0.749
362.27	0.752
362.48	0.752
362.69	0.754
362.89	0.748
363.10	0.750
363.31	0.755
363.52	0.758
363.73	0.752
363.93	0.753
364.14	0.755
364.35	0.756
364.56	0.746
364.77	0.748
364.97	0.750
365.18	0.750
365.39	0.743
365.60	0.740
365.81	0.741
366.01	0.741
366.22	0.737
366.43	0.738
366.64	0.740
366.84	0.747
367.05	0.743
367.26	0.742
367.47	0.745
367.68	0.746
367.88	0.742
368.09	0.740
368.30	0.743
368.51	0.743
368.71	0.741
368.92	0.745
369.13	0.743
369.34	0.743
369.55	0.740
369.75	0.740
369.96	0.749
370.17	0.749
370.38	0.744
370.58	0.744
370.79	0.750
371.00	0.749
371.21	0.739
371.41	0.744
371.62	0.749
371.83	0.745
372.04	0.742
372.24	0.734
372.45	0.735
372.66	0.736
372.87	0.732
373.07	0.729
373.28	0.729
373.49	0.733
373.70	0.723
373.90	0.722
374.11	0.731
374.32	0.730
374.53	0.729
374.73	0.730
374.94	0.733
375.15	0.733
375.36	0.730
375.56	0.739
375.77	0.740
375.98	0.739
376.19	0.737
376.39	0.730
376.60	0.734
376.81	0.734
377.02	0.731
377.22	0.730
377.43	0.729
377.64	0.729
377.84	0.720
378.05	0.724
378.26	0.731
378.47	0.729
378.67	0.726
378.88	0.722
379.09	0.724
379.30	0.725
379.50	0.722
379.71	0.724
379.92	0.728
380.12	0.727
380.33	0.718
380.54	0.714
380.75	0.721
380.95	0.721
381.16	0.719
381.37	0.719
381.57	0.720
381.78	0.720
381.99	0.720
382.20	0.719
382.40	0.723
382.61	0.724
382.82	0.720
383.02	0.713
383.23	0.717
383.44	0.716
383.64	0.714
383.85	0.717
384.06	0.721
384.27	0.718
384.47	0.716
384.68	0.716
384.89	0.722
385.09	0.721
385.30	0.720
385.51	0.719
385.71	0.723
385.92	0.724
386.13	0.722
386.33	0.723
386.54	0.724
386.75	0.722
386.95	0.718
387.16	0.713
387.37	0.716
387.58	0.715
387.78	0.713
387.99	0.710
388.20	0.713
388.40	0.709
388.61	0.704
388.82	0.708
389.02	0.710
389.23	0.709
389.44	0.708
389.64	0.708
389.85	0.719
390.06	0.719
390.26	0.719
390.47	0.718
390.68	0.721
390.88	0.719
391.09	0.714
391.30	0.714
391.50	0.714
391.71	0.714
391.92	0.710
392.12	0.702
392.33	0.703
392.53	0.703
392.74	0.702
392.95	0.701
393.15	0.704
393.36	0.707
393.57	0.704
393.77	0.707
393.98	0.709
394.19	0.710
394.39	0.709
394.60	0.710
394.81	0.712
395.01	0.710
395.22	0.708
395.43	0.709
395.63	0.714
395.84	0.715
396.04	0.710
396.25	0.712
396.46	0.714
396.66	0.712
396.87	0.709
397.08	0.705
397.28	0.708
397.49	0.709
397.69	0.704
397.90	0.700
398.11	0.701
398.31	0.701
398.52	0.697
398.73	0.698
398.93	0.697
399.14	0.696
399.34	0.696
399.55	0.697
399.76	0.697
399.96	0.699
400.17	0.697
400.37	0.696
400.58	0.702
400.79	0.703
400.99	0.701
401.20	0.706
401.41	0.708
401.61	0.709
401.82	0.712
402.02	0.711
402.23	0.712
402.44	0.711
402.64	0.711
402.85	0.706
403.05	0.705
403.26	0.703
403.47	0.697
403.67	0.697
403.88	0.697
404.08	0.692
404.29	0.690
404.50	0.689
404.70	0.690
404.91	0.689
405.11	0.686
405.32	0.686
405.52	0.687
405.73	0.687
405.94	0.684
406.14	0.687
406.35	0.689
406.55	0.689
406.76	0.687
406.97	0.688
407.17	0.690
407.38	0.690
407.58	0.688
407.79	0.691
407.99	0.694
408.20	0.694
408.41	0.689
408.61	0.687
408.82	0.688
409.02	0.688
409.23	0.685
409.43	0.684
409.64	0.686
409.84	0.685
410.05	0.681
410.26	0.679
410.46	0.679
410.67	0.679
410.87	0.680
411.08	0.682
411.28	0.683
411.49	0.684
411.69	0.682
411.90	0.683
412.11	0.685
412.31	0.685
412.52	0.685
412.72	0.685
412.93	0.686
413.13	0.685
413.34	0.680
413.54	0.682
413.75	0.684
413.95	0.683
414.16	0.679
414.37	0.682
414.57	0.683
414.78	0.685
414.98	0.682
415.19	0.683
415.39	0.682
415.60	0.684
415.80	0.683
416.01	0.681
416.21	0.684
416.42	0.685
416.62	0.679
416.83	0.679
417.03	0.679
417.24	0.680
417.44	0.678
417.65	0.677
417.86	0.678
418.06	0.675
418.27	0.673
418.47	0.675
418.68	0.675
418.88	0.676
419.09	0.674
419.29	0.674
419.50	0.675
419.70	0.675
419.91	0.673
420.11	0.671
420.32	0.674
420.52	0.674
420.73	0.672
420.93	0.673
421.14	0.675
421.34	0.674
421.55	0.670
421.75	0.670
421.96	0.672
422.16	0.671
422.37	0.670
422.57	0.667
422.78	0.669
422.98	0.666
423.19	0.664
423.39	0.662
423.60	0.666
423.80	0.669
424.01	0.667
424.21	0.670
424.42	0.672
424.62	0.672
424.83	0.672
425.03	0.672
425.23	0.674
425.44	0.675
425.64	0.675
425.85	0.674
426.05	0.675
426.26	0.675
426.46	0.671
426.67	0.669
426.87	0.675
427.08	0.675
427.28	0.672
427.49	0.673
427.69	0.673
427.90	0.672
428.10	0.669
428.31	0.669
428.51	0.670
428.71	0.670
428.92	0.670
429.12	0.667
429.33	0.668
429.53	0.672
429.74	0.676
429.94	0.676
430.15	0.676
430.35	0.676
430.56	0.673
430.76	0.672
430.96	0.673
431.17	0.671
431.37	0.668
431.58	0.666
431.78	0.663
431.99	0.657
432.19	0.659
432.40	0.661
432.60	0.662
432.80	0.664
433.01	0.663
433.21	0.663
433.42	0.666
433.62	0.666
433.83	0.666
434.03	0.668
434.23	0.672
434.44	0.670
434.64	0.668
434.85	0.672
435.05	0.673
435.26	0.673
435.46	0.672
435.66	0.671
435.87	0.671
436.07	0.671
436.28	0.666
436.48	0.663
436.69	0.663
436.89	0.663
437.09	0.657
437.30	0.657
437.50	0.658
437.71	0.670
437.91	0.669
438.11	0.671
438.32	0.675
438.52	0.676
438.73	0.675
438.93	0.673
439.13	0.673
439.34	0.676
439.54	0.673
439.75	0.674
439.95	0.664
440.15	0.668
440.36	0.666
440.56	0.664
440.77	0.664
440.97	0.664
441.17	0.663
441.38	0.665
441.58	0.662
441.79	0.662
441.99	0.660
442.19	0.660
442.40	0.658
442.60	0.658
442.81	0.656
443.01	0.657
443.21	0.658
443.42	0.658
443.62	0.656
443.82	0.656
444.03	0.658
444.23	0.658
444.44	0.658
444.64	0.657
444.84	0.659
445.05	0.659
445.25	0.656
445.45	0.656
445.66	0.659
445.86	0.658
446.06	0.660
446.27	0.659
446.47	0.662
446.68	0.660
446.88	0.658
447.08	0.657
447.29	0.660
447.49	0.660
447.69	0.660
447.90	0.659
448.10	0.662
448.30	0.659
448.51	0.661
448.71	0.659
448.91	0.661
449.12	0.660
449.32	0.661
449.52	0.659
449.73	0.664
449.93	0.662
450.14	0.663
450.34	0.662
450.54	0.665
450.75	0.662
450.95	0.661
451.15	0.661
451.36	0.664
451.56	0.662
451.76	0.660
451.97	0.657
452.17	0.657
452.37	0.655
452.58	0.652
452.78	0.651
452.98	0.654
453.19	0.654
453.39	0.654
453.59	0.653
453.79	0.654
454.00	0.655
454.20	0.653
454.40	0.654
454.61	0.657
454.81	0.658
455.01	0.656
455.22	0.657
455.42	0.660
455.62	0.657
455.83	0.657
456.03	0.660
456.23	0.662
456.44	0.663
456.64	0.661
456.84	0.661
457.04	0.662
457.25	0.662
457.45	0.658
457.65	0.656
457.86	0.659
458.06	0.657
458.26	0.653
458.47	0.652
458.67	0.653
458.87	0.653
459.07	0.651
459.28	0.652
459.48	0.655
459.68	0.655
