SpectraSuite Data File
++++++++++++++++++++++++++++++++++++
Date: Fri Jun 19 13:03:00 CEST 2015
User: introlabs
Dark Spectrum Present: Yes
Reference Spectrum Present: Yes
Number of Sampled Component Spectra: 1
Spectrometers: USB4H08886
Integration Time (usec): 745692 (USB4H08886)
Spectra Averaged: 5 (USB4H08886)
Boxcar Smoothing: 5 (USB4H08886)
Correct for Electrical Dark: Yes (USB4H08886)
Strobe/Lamp Enabled: No (USB4H08886)
Correct for Detector Non-linearity: Yes (USB4H08886)
Correct for Stray Light: Yes (USB4H08886)
Number of Pixels in Processed Spectrum: 3648
>>>>>Begin Processed Spectral Data<<<<<
178.14	-0.000
178.36	-0.000
178.57	-0.000
178.79	-0.000
179.01	-0.000
179.22	-0.000
179.44	-0.000
179.65	-0.000
179.87	-0.000
180.08	-0.000
180.30	-0.000
180.52	-0.000
180.73	-0.000
180.95	-0.000
181.16	-0.000
181.38	-0.000
181.59	-0.000
181.81	-0.000
182.03	-0.000
182.24	-0.000
182.46	-0.000
182.67	-0.000
182.89	-0.000
183.10	-0.000
183.32	-0.000
183.54	-0.000
183.75	-0.000
183.97	-0.000
184.18	-0.000
184.40	-0.000
184.61	-0.000
184.83	-0.000
185.04	-0.000
185.26	-0.000
185.48	-0.000
185.69	-0.000
185.91	-0.000
186.12	-0.000
186.34	-0.000
186.55	-0.000
186.77	-0.000
186.98	-0.000
187.20	-0.000
187.42	-0.000
187.63	-0.000
187.85	-0.000
188.06	-0.000
188.28	-0.000
188.49	-0.000
188.71	-0.000
188.92	-0.000
189.14	-0.000
189.36	-0.000
189.57	-0.000
189.79	-0.000
190.00	-0.000
190.22	-0.000
190.43	-0.000
190.65	-0.000
190.86	-0.000
191.08	-0.000
191.29	-0.000
191.51	-0.000
191.72	-0.000
191.94	-0.000
192.16	-0.000
192.37	-0.000
192.59	-0.000
192.80	-0.000
193.02	-0.000
193.23	-0.000
193.45	-0.000
193.66	-0.000
193.88	-0.000
194.09	-0.000
194.31	-0.000
194.52	-0.000
194.74	-0.000
194.95	-0.000
195.17	-0.000
195.38	-0.000
195.60	-0.000
195.81	-0.000
196.03	-0.000
196.25	-0.000
196.46	-0.000
196.68	-0.000
196.89	-0.000
197.11	-0.000
197.32	-0.000
197.54	-0.000
197.75	-0.000
197.97	-0.000
198.18	-0.000
198.40	-0.000
198.61	-0.000
198.83	-0.000
199.04	-0.000
199.26	-0.000
199.47	-0.000
199.69	-0.000
199.90	-0.000
200.12	-0.000
200.33	-0.000
200.55	-0.000
200.76	-0.000
200.98	-0.000
201.19	-0.000
201.41	-0.000
201.62	-0.000
201.84	-0.000
202.05	-0.000
202.27	-0.000
202.48	-0.000
202.70	-0.000
202.91	-0.000
203.13	-0.000
203.34	-0.000
203.56	-0.000
203.77	-0.000
203.99	-0.000
204.20	-0.000
204.42	-0.000
204.63	-0.000
204.85	-0.000
205.06	-0.000
205.28	-0.000
205.49	-0.000
205.71	-0.000
205.92	-0.000
206.14	-0.000
206.35	-0.000
206.56	-0.000
206.78	-0.000
206.99	-0.000
207.21	-0.000
207.42	-0.000
207.64	-0.000
207.85	-0.000
208.07	-0.000
208.28	-0.000
208.50	-0.000
208.71	-0.000
208.93	-0.000
209.14	-0.000
209.36	-0.000
209.57	-0.000
209.79	-0.000
210.00	-0.000
210.22	-0.000
210.43	-0.000
210.64	-0.000
210.86	-0.000
211.07	-0.000
211.29	-0.000
211.50	-0.000
211.72	-0.000
211.93	-0.000
212.15	-0.000
212.36	-0.000
212.58	-0.000
212.79	-0.000
213.01	-0.000
213.22	-0.000
213.43	-0.000
213.65	-0.000
213.86	-0.000
214.08	-0.000
214.29	-0.000
214.51	-0.000
214.72	-0.000
214.94	-0.000
215.15	-0.000
215.36	-0.000
215.58	-0.000
215.79	-0.000
216.01	-0.000
216.22	-0.000
216.44	-0.000
216.65	-0.000
216.87	-0.000
217.08	-0.000
217.29	-0.000
217.51	-0.000
217.72	-0.000
217.94	-0.000
218.15	-0.000
218.37	-0.000
218.58	-0.000
218.80	-0.000
219.01	-0.000
219.22	-0.000
219.44	-0.000
219.65	-0.000
219.87	-0.000
220.08	-0.000
220.30	-0.000
220.51	-0.000
220.72	-0.000
220.94	-0.000
221.15	-0.000
221.37	-0.000
221.58	-0.000
221.79	-0.000
222.01	-0.000
222.22	-0.000
222.44	-0.000
222.65	-0.000
222.87	-0.000
223.08	-0.000
223.29	-0.000
223.51	-0.000
223.72	-0.000
223.94	-0.000
224.15	-0.000
224.36	-0.000
224.58	-0.000
224.79	-0.000
225.01	-0.000
225.22	-0.000
225.44	-0.000
225.65	-0.000
225.86	-0.000
226.08	-0.000
226.29	-0.000
226.51	-0.000
226.72	-0.000
226.93	-0.000
227.15	-0.000
227.36	-0.000
227.58	-0.000
227.79	-0.000
228.00	-0.000
228.22	-0.000
228.43	-0.000
228.65	-0.000
228.86	-0.000
229.07	-0.000
229.29	-0.000
229.50	-0.000
229.72	-0.000
229.93	-0.000
230.14	-0.000
230.36	-0.000
230.57	-0.000
230.78	-0.000
231.00	-0.000
231.21	-0.000
231.43	-0.000
231.64	-0.000
231.85	-0.000
232.07	-0.000
232.28	-0.000
232.50	-0.000
232.71	-0.000
232.92	-0.000
233.14	-0.000
233.35	-0.000
233.56	-0.000
233.78	-0.000
233.99	-0.000
234.21	-0.000
234.42	-0.000
234.63	-0.000
234.85	-0.000
235.06	-0.000
235.27	-0.000
235.49	-0.000
235.70	-0.000
235.91	-0.000
236.13	-0.000
236.34	-0.000
236.56	-0.000
236.77	-0.000
236.98	-0.000
237.20	-0.000
237.41	-0.000
237.62	-0.000
237.84	-0.000
238.05	-0.000
238.26	-0.000
238.48	-0.000
238.69	-0.000
238.91	-0.000
239.12	-0.000
239.33	-0.000
239.55	-0.000
239.76	-0.000
239.97	-0.000
240.19	-0.000
240.40	-0.000
240.61	-0.000
240.83	-0.000
241.04	-0.000
241.25	-0.000
241.47	-0.000
241.68	-0.000
241.89	-0.000
242.11	-0.000
242.32	-0.000
242.53	-0.000
242.75	-0.000
242.96	-0.000
243.17	-0.000
243.39	-0.000
243.60	-0.000
243.81	-0.000
244.03	-0.000
244.24	-0.000
244.45	-0.000
244.67	-0.000
244.88	-0.000
245.09	-0.000
245.31	-0.000
245.52	-0.000
245.73	-0.000
245.95	-0.000
246.16	-0.000
246.37	-0.000
246.59	-0.000
246.80	-0.000
247.01	-0.000
247.23	-0.000
247.44	-0.000
247.65	-0.000
247.87	-0.000
248.08	-0.000
248.29	-0.000
248.51	-0.000
248.72	-0.000
248.93	-0.000
249.15	-0.000
249.36	-0.000
249.57	-0.000
249.78	-0.000
250.00	-0.000
250.21	-0.000
250.42	-0.000
250.64	-0.000
250.85	-0.000
251.06	-0.000
251.28	-0.000
251.49	-0.000
251.70	-0.000
251.92	-0.000
252.13	-0.000
252.34	-0.000
252.55	-0.000
252.77	-0.000
252.98	-0.000
253.19	-0.000
253.41	-0.000
253.62	-0.000
253.83	-0.000
254.05	-0.000
254.26	-0.000
254.47	-0.000
254.68	-0.000
254.90	-0.000
255.11	-0.000
255.32	-0.000
255.54	-0.000
255.75	-0.000
255.96	-0.000
256.17	-0.000
256.39	-0.000
256.60	-0.000
256.81	-0.000
257.03	-0.000
257.24	-0.000
257.45	-0.000
257.66	-0.000
257.88	-0.000
258.09	-0.000
258.30	-0.000
258.51	-0.000
258.73	-0.000
258.94	-0.000
259.15	-0.000
259.37	-0.000
259.58	-0.000
259.79	-0.000
260.00	-0.000
260.22	-0.000
260.43	-0.000
260.64	-0.000
260.85	-0.000
261.07	-0.000
261.28	-0.000
261.49	-0.000
261.71	-0.000
261.92	-0.000
262.13	-0.000
262.34	-0.000
262.56	-0.000
262.77	-0.000
262.98	-0.000
263.19	-0.000
263.41	-0.000
263.62	-0.000
263.83	-0.000
264.04	-0.000
264.26	-0.000
264.47	-0.000
264.68	-0.000
264.89	-0.000
265.11	-0.000
265.32	-0.000
265.53	-0.000
265.74	-0.000
265.96	-0.000
266.17	-0.000
266.38	-0.000
266.59	-0.000
266.81	-0.000
267.02	-0.000
267.23	-0.000
267.44	-0.000
267.65	-0.000
267.87	-0.000
268.08	-0.000
268.29	-0.000
268.50	-0.000
268.72	-0.000
268.93	-0.000
269.14	-0.000
269.35	-0.000
269.57	-0.000
269.78	-0.000
269.99	-0.000
270.20	-0.000
270.41	-0.000
270.63	-0.000
270.84	-0.000
271.05	-0.000
271.26	-0.000
271.48	-0.000
271.69	-0.000
271.90	-0.000
272.11	-0.000
272.32	-0.000
272.54	-0.000
272.75	-0.000
272.96	-0.000
273.17	-0.000
273.39	-0.000
273.60	-0.000
273.81	-0.000
274.02	-0.000
274.23	-0.000
274.45	-0.000
274.66	-0.000
274.87	-0.000
275.08	-0.000
275.29	-0.000
275.51	-0.000
275.72	-0.000
275.93	-0.000
276.14	-0.000
276.35	-0.000
276.57	-0.000
276.78	-0.000
276.99	-0.000
277.20	-0.000
277.41	-0.000
277.63	-0.000
277.84	-0.000
278.05	-0.000
278.26	-0.000
278.47	-0.000
278.69	-0.000
278.90	-0.000
279.11	-0.000
279.32	-0.000
279.53	-0.000
279.74	-0.000
279.96	-0.000
280.17	-0.000
280.38	-0.000
280.59	-0.000
280.80	-0.000
281.02	-0.000
281.23	-0.000
281.44	-0.000
281.65	-0.000
281.86	-0.000
282.07	-0.000
282.29	-0.000
282.50	-0.000
282.71	-0.000
282.92	-0.000
283.13	-0.000
283.35	-0.000
283.56	-0.000
283.77	-0.000
283.98	-0.000
284.19	-0.000
284.40	-0.000
284.62	-0.000
284.83	-0.000
285.04	-0.000
285.25	-0.000
285.46	-0.000
285.67	-0.000
285.88	-0.000
286.10	-0.000
286.31	-0.000
286.52	-0.000
286.73	-0.000
286.94	-0.000
287.15	-0.000
287.37	-0.000
287.58	-0.000
287.79	-0.000
288.00	-0.000
288.21	-0.000
288.42	-0.000
288.63	-0.000
288.85	-0.000
289.06	-0.000
289.27	-0.000
289.48	-0.000
289.69	-0.000
289.90	-0.000
290.11	-0.000
290.33	-0.000
290.54	-0.000
290.75	-0.000
290.96	-0.000
291.17	-0.000
291.38	-0.000
291.59	-0.000
291.81	-0.000
292.02	-0.000
292.23	-0.000
292.44	-0.000
292.65	-0.000
292.86	-0.000
293.07	-0.000
293.28	-0.000
293.50	-0.000
293.71	-0.000
293.92	-0.000
294.13	-0.000
294.34	-0.000
294.55	-0.000
294.76	-0.000
294.97	-0.000
295.19	-0.000
295.40	-0.000
295.61	-0.000
295.82	-0.000
296.03	-0.000
296.24	-0.000
296.45	-0.000
296.66	-0.000
296.87	-0.000
297.09	-0.000
297.30	-0.000
297.51	3.474
297.72	2.644
297.93	-0.000
298.14	-0.000
298.35	2.697
298.56	2.479
298.77	-0.000
298.99	-0.000
299.20	3.002
299.41	2.606
299.62	2.368
299.83	2.300
300.04	2.026
300.25	2.001
300.46	2.117
300.67	2.017
300.88	1.868
301.10	1.888
301.31	2.088
301.52	1.906
301.73	1.779
301.94	1.779
302.15	1.830
302.36	1.736
302.57	1.618
302.78	1.644
302.99	1.724
303.20	1.761
303.41	1.587
303.63	1.558
303.84	1.580
304.05	1.567
304.26	1.472
304.47	1.482
304.68	1.494
304.89	1.480
305.10	1.411
305.31	1.399
305.52	1.458
305.73	1.443
305.94	1.389
306.15	1.376
306.37	1.408
306.58	1.420
306.79	1.372
307.00	1.398
307.21	1.456
307.42	1.448
307.63	1.395
307.84	1.351
308.05	1.406
308.26	1.398
308.47	1.363
308.68	1.356
308.89	1.356
309.10	1.347
309.31	1.293
309.52	1.281
309.73	1.299
309.95	1.288
310.16	1.252
310.37	1.235
310.58	1.260
310.79	1.257
311.00	1.251
311.21	1.254
311.42	1.264
311.63	1.255
311.84	1.228
312.05	1.226
312.26	1.252
312.47	1.266
312.68	1.238
312.89	1.220
313.10	1.233
313.31	1.200
313.52	1.199
313.73	1.198
313.94	1.204
314.15	1.182
314.36	1.155
314.57	1.148
314.78	1.134
314.99	1.128
315.21	1.110
315.42	1.112
315.63	1.126
315.84	1.101
316.05	1.083
316.26	1.093
316.47	1.114
316.68	1.107
316.89	1.083
317.10	1.104
317.31	1.112
317.52	1.115
317.73	1.091
317.94	1.092
318.15	1.139
318.36	1.137
318.57	1.114
318.78	1.102
318.99	1.145
319.20	1.140
319.41	1.101
319.62	1.102
319.83	1.115
320.04	1.109
320.25	1.089
320.46	1.054
320.67	1.057
320.88	1.054
321.09	1.037
321.30	1.022
321.51	1.038
321.72	1.038
321.93	1.019
322.14	1.011
322.35	1.041
322.56	1.044
322.77	1.029
322.98	1.042
323.19	1.051
323.40	1.056
323.61	1.031
323.82	1.027
324.03	1.032
324.24	1.028
324.45	1.014
324.66	0.993
324.87	0.990
325.08	0.990
325.29	0.968
325.50	0.961
325.71	0.967
325.92	0.974
326.13	0.959
326.34	0.961
326.55	0.970
326.76	0.967
326.97	0.955
327.18	0.949
327.39	0.977
327.60	0.980
327.80	0.979
328.01	0.977
328.22	0.979
328.43	0.983
328.64	0.968
328.85	0.973
329.06	0.976
329.27	0.975
329.48	0.969
329.69	0.949
329.90	0.959
330.11	0.951
330.32	0.943
330.53	0.936
330.74	0.936
330.95	0.935
331.16	0.920
331.37	0.928
331.58	0.930
331.79	0.930
332.00	0.919
332.21	0.914
332.42	0.918
332.63	0.909
332.83	0.903
333.04	0.905
333.25	0.916
333.46	0.914
333.67	0.898
333.88	0.900
334.09	0.910
334.30	0.906
334.51	0.896
334.72	0.892
334.93	0.896
335.14	0.895
335.35	0.888
335.56	0.885
335.77	0.894
335.98	0.893
336.18	0.886
336.39	0.878
336.60	0.884
336.81	0.881
337.02	0.879
337.23	0.883
337.44	0.887
337.65	0.887
337.86	0.875
338.07	0.870
338.28	0.877
338.49	0.874
338.70	0.866
338.91	0.872
339.11	0.881
339.32	0.877
339.53	0.864
339.74	0.861
339.95	0.860
340.16	0.859
340.37	0.851
340.58	0.849
340.79	0.853
341.00	0.853
341.21	0.843
341.41	0.843
341.62	0.846
341.83	0.846
342.04	0.841
342.25	0.851
342.46	0.856
342.67	0.854
342.88	0.845
343.09	0.843
343.30	0.852
343.50	0.855
343.71	0.843
343.92	0.841
344.13	0.846
344.34	0.846
344.55	0.829
344.76	0.828
344.97	0.834
345.18	0.832
345.38	0.828
345.59	0.823
345.80	0.823
346.01	0.821
346.22	0.816
346.43	0.811
346.64	0.820
346.85	0.819
347.06	0.811
347.26	0.810
347.47	0.814
347.68	0.811
347.89	0.805
348.10	0.800
348.31	0.808
348.52	0.809
348.73	0.804
348.93	0.800
349.14	0.803
349.35	0.802
349.56	0.797
349.77	0.792
349.98	0.799
350.19	0.798
350.39	0.792
350.60	0.787
350.81	0.803
351.02	0.803
351.23	0.797
351.44	0.799
351.65	0.803
351.86	0.801
352.06	0.799
352.27	0.800
352.48	0.800
352.69	0.798
352.90	0.793
353.11	0.780
353.31	0.787
353.52	0.784
353.73	0.776
353.94	0.777
354.15	0.783
354.36	0.782
354.57	0.772
354.77	0.776
354.98	0.775
355.19	0.774
355.40	0.772
355.61	0.779
355.82	0.784
356.02	0.784
356.23	0.776
356.44	0.777
356.65	0.781
356.86	0.782
357.07	0.775
357.27	0.779
357.48	0.783
357.69	0.778
357.90	0.762
358.11	0.758
358.32	0.762
358.52	0.765
358.73	0.756
358.94	0.757
359.15	0.763
359.36	0.763
359.56	0.757
359.77	0.754
359.98	0.761
360.19	0.761
360.40	0.757
360.61	0.757
360.81	0.757
361.02	0.757
361.23	0.748
361.44	0.746
361.65	0.748
361.85	0.748
362.06	0.746
362.27	0.748
362.48	0.749
362.69	0.752
362.89	0.745
363.10	0.747
363.31	0.752
363.52	0.756
363.73	0.751
363.93	0.752
364.14	0.755
364.35	0.756
364.56	0.744
364.77	0.746
364.97	0.749
365.18	0.750
365.39	0.744
365.60	0.740
365.81	0.741
366.01	0.740
366.22	0.736
366.43	0.735
366.64	0.738
366.84	0.744
367.05	0.740
367.26	0.739
367.47	0.741
367.68	0.741
367.88	0.737
368.09	0.736
368.30	0.739
368.51	0.738
368.71	0.736
368.92	0.740
369.13	0.739
369.34	0.738
369.55	0.737
369.75	0.737
369.96	0.745
370.17	0.745
370.38	0.741
370.58	0.740
370.79	0.747
371.00	0.746
371.21	0.737
371.41	0.742
371.62	0.748
371.83	0.743
372.04	0.740
372.24	0.732
372.45	0.733
372.66	0.734
372.87	0.730
373.07	0.726
373.28	0.727
373.49	0.730
373.70	0.720
373.90	0.719
374.11	0.729
374.32	0.729
374.53	0.728
374.73	0.728
374.94	0.731
375.15	0.731
375.36	0.727
375.56	0.735
375.77	0.736
375.98	0.736
376.19	0.733
376.39	0.726
376.60	0.730
376.81	0.730
377.02	0.728
377.22	0.727
377.43	0.727
377.64	0.727
377.84	0.718
378.05	0.723
378.26	0.729
378.47	0.728
378.67	0.724
378.88	0.721
379.09	0.722
379.30	0.722
379.50	0.719
379.71	0.720
379.92	0.724
380.12	0.723
380.33	0.715
380.54	0.711
380.75	0.719
380.95	0.718
381.16	0.716
381.37	0.716
381.57	0.718
381.78	0.718
381.99	0.718
382.20	0.717
382.40	0.721
382.61	0.720
382.82	0.716
383.02	0.710
383.23	0.714
383.44	0.714
383.64	0.712
383.85	0.715
384.06	0.718
384.27	0.716
384.47	0.713
384.68	0.713
384.89	0.720
385.09	0.719
385.30	0.718
385.51	0.716
385.71	0.720
385.92	0.720
386.13	0.717
386.33	0.719
386.54	0.721
386.75	0.719
386.95	0.715
387.16	0.709
387.37	0.712
387.58	0.712
387.78	0.709
387.99	0.706
388.20	0.708
388.40	0.705
388.61	0.701
388.82	0.704
389.02	0.707
389.23	0.708
389.44	0.706
389.64	0.706
389.85	0.717
390.06	0.717
390.26	0.717
390.47	0.716
390.68	0.719
390.88	0.716
391.09	0.711
391.30	0.711
391.50	0.711
391.71	0.710
391.92	0.707
392.12	0.699
392.33	0.699
392.53	0.699
392.74	0.699
392.95	0.698
393.15	0.701
393.36	0.703
393.57	0.700
393.77	0.703
393.98	0.705
394.19	0.704
394.39	0.704
394.60	0.705
394.81	0.707
395.01	0.705
395.22	0.703
395.43	0.704
395.63	0.708
395.84	0.709
396.04	0.705
396.25	0.706
396.46	0.709
396.66	0.706
396.87	0.703
397.08	0.700
397.28	0.703
397.49	0.704
397.69	0.700
397.90	0.695
398.11	0.696
398.31	0.697
398.52	0.693
398.73	0.693
398.93	0.693
399.14	0.692
399.34	0.691
399.55	0.691
399.76	0.691
399.96	0.692
400.17	0.690
400.37	0.689
400.58	0.695
400.79	0.697
400.99	0.694
401.20	0.699
401.41	0.702
401.61	0.703
401.82	0.708
402.02	0.707
402.23	0.709
402.44	0.709
402.64	0.708
402.85	0.703
403.05	0.701
403.26	0.700
403.47	0.694
403.67	0.693
403.88	0.694
404.08	0.688
404.29	0.686
404.50	0.685
404.70	0.685
404.91	0.685
405.11	0.681
405.32	0.682
405.52	0.683
405.73	0.682
405.94	0.680
406.14	0.682
406.35	0.684
406.55	0.683
406.76	0.681
406.97	0.682
407.17	0.684
407.38	0.683
407.58	0.681
407.79	0.685
407.99	0.687
408.20	0.688
408.41	0.683
408.61	0.682
408.82	0.684
409.02	0.683
409.23	0.681
409.43	0.680
409.64	0.682
409.84	0.681
410.05	0.677
410.26	0.676
410.46	0.676
410.67	0.675
410.87	0.676
411.08	0.677
411.28	0.679
411.49	0.680
411.69	0.677
411.90	0.678
412.11	0.679
412.31	0.680
412.52	0.678
412.72	0.679
412.93	0.681
413.13	0.680
413.34	0.676
413.54	0.678
413.75	0.680
413.95	0.679
414.16	0.676
414.37	0.679
414.57	0.680
414.78	0.682
414.98	0.679
415.19	0.680
415.39	0.678
415.60	0.680
415.80	0.680
416.01	0.678
416.21	0.680
416.42	0.680
416.62	0.675
416.83	0.675
417.03	0.675
417.24	0.675
417.44	0.673
417.65	0.673
417.86	0.673
418.06	0.670
418.27	0.668
418.47	0.670
418.68	0.671
418.88	0.671
419.09	0.670
419.29	0.670
419.50	0.671
419.70	0.670
419.91	0.669
420.11	0.667
420.32	0.670
420.52	0.669
420.73	0.668
420.93	0.669
421.14	0.671
421.34	0.669
421.55	0.666
421.75	0.666
421.96	0.667
422.16	0.668
422.37	0.666
422.57	0.663
422.78	0.665
422.98	0.662
423.19	0.660
423.39	0.658
423.60	0.662
423.80	0.664
424.01	0.662
424.21	0.664
424.42	0.666
424.62	0.666
424.83	0.665
425.03	0.665
425.23	0.667
425.44	0.668
425.64	0.668
425.85	0.667
426.05	0.668
426.26	0.669
426.46	0.665
426.67	0.664
426.87	0.669
427.08	0.670
427.28	0.666
427.49	0.667
427.69	0.668
427.90	0.667
428.10	0.664
428.31	0.664
428.51	0.666
428.71	0.665
428.92	0.665
429.12	0.663
429.33	0.665
429.53	0.669
429.74	0.673
429.94	0.673
430.15	0.672
430.35	0.672
430.56	0.669
430.76	0.669
430.96	0.670
431.17	0.668
431.37	0.665
431.58	0.663
431.78	0.661
431.99	0.654
432.19	0.656
432.40	0.659
432.60	0.660
432.80	0.663
433.01	0.661
433.21	0.661
433.42	0.663
433.62	0.663
433.83	0.663
434.03	0.665
434.23	0.668
434.44	0.666
434.64	0.663
434.85	0.668
435.05	0.669
435.26	0.670
435.46	0.668
435.66	0.668
435.87	0.668
436.07	0.669
436.28	0.664
436.48	0.661
436.69	0.662
436.89	0.662
437.09	0.656
437.30	0.654
437.50	0.655
437.71	0.667
437.91	0.666
438.11	0.667
438.32	0.672
438.52	0.672
438.73	0.671
438.93	0.669
439.13	0.670
439.34	0.673
439.54	0.671
439.75	0.670
439.95	0.660
440.15	0.665
440.36	0.663
440.56	0.661
440.77	0.662
440.97	0.662
441.17	0.661
441.38	0.662
441.58	0.660
441.79	0.660
441.99	0.659
442.19	0.658
442.40	0.656
442.60	0.656
442.81	0.653
443.01	0.653
443.21	0.654
443.42	0.654
443.62	0.652
443.82	0.652
444.03	0.653
444.23	0.653
444.44	0.653
444.64	0.651
444.84	0.653
445.05	0.653
445.25	0.651
445.45	0.652
445.66	0.654
445.86	0.654
446.06	0.655
446.27	0.654
446.47	0.658
446.68	0.656
446.88	0.655
447.08	0.655
447.29	0.657
447.49	0.657
447.69	0.656
447.90	0.655
448.10	0.658
448.30	0.655
448.51	0.657
448.71	0.654
448.91	0.657
449.12	0.656
449.32	0.657
449.52	0.656
449.73	0.660
449.93	0.659
450.14	0.659
450.34	0.659
450.54	0.662
450.75	0.659
450.95	0.658
451.15	0.658
451.36	0.661
451.56	0.657
451.76	0.656
451.97	0.653
452.17	0.655
452.37	0.653
452.58	0.649
452.78	0.649
452.98	0.652
453.19	0.652
453.39	0.652
453.59	0.651
453.79	0.653
454.00	0.654
454.20	0.652
454.40	0.653
454.61	0.655
454.81	0.657
455.01	0.655
455.22	0.655
455.42	0.657
455.62	0.655
455.83	0.655
456.03	0.658
456.23	0.659
456.44	0.660
456.64	0.658
456.84	0.659
457.04	0.659
457.25	0.658
457.45	0.655
457.65	0.653
457.86	0.655
458.06	0.654
458.26	0.649
458.47	0.648
458.67	0.650
458.87	0.651
459.07	0.648
459.28	0.650
459.48	0.653
459.68	0.653
