SpectraSuite Data File
++++++++++++++++++++++++++++++++++++
Date: Fri Jun 19 15:50:40 CEST 2015
User: introlabs
Dark Spectrum Present: Yes
Reference Spectrum Present: Yes
Number of Sampled Component Spectra: 1
Spectrometers: USB4H08886
Integration Time (usec): 745692 (USB4H08886)
Spectra Averaged: 5 (USB4H08886)
Boxcar Smoothing: 5 (USB4H08886)
Correct for Electrical Dark: Yes (USB4H08886)
Strobe/Lamp Enabled: No (USB4H08886)
Correct for Detector Non-linearity: Yes (USB4H08886)
Correct for Stray Light: Yes (USB4H08886)
Number of Pixels in Processed Spectrum: 3648
>>>>>Begin Processed Spectral Data<<<<<
178.14	-0.000
178.36	-0.000
178.57	-0.000
178.79	-0.000
179.01	-0.000
179.22	-0.000
179.44	-0.000
179.65	-0.000
179.87	-0.000
180.08	-0.000
180.30	-0.000
180.52	-0.000
180.73	-0.000
180.95	-0.000
181.16	-0.000
181.38	-0.000
181.59	-0.000
181.81	-0.000
182.03	-0.000
182.24	-0.000
182.46	-0.000
182.67	-0.000
182.89	-0.000
183.10	-0.000
183.32	-0.000
183.54	-0.000
183.75	-0.000
183.97	-0.000
184.18	-0.000
184.40	-0.000
184.61	-0.000
184.83	-0.000
185.04	-0.000
185.26	-0.000
185.48	-0.000
185.69	-0.000
185.91	-0.000
186.12	-0.000
186.34	-0.000
186.55	-0.000
186.77	-0.000
186.98	-0.000
187.20	-0.000
187.42	-0.000
187.63	-0.000
187.85	-0.000
188.06	-0.000
188.28	-0.000
188.49	-0.000
188.71	-0.000
188.92	-0.000
189.14	-0.000
189.36	-0.000
189.57	-0.000
189.79	-0.000
190.00	-0.000
190.22	-0.000
190.43	-0.000
190.65	-0.000
190.86	-0.000
191.08	-0.000
191.29	-0.000
191.51	-0.000
191.72	-0.000
191.94	-0.000
192.16	-0.000
192.37	-0.000
192.59	-0.000
192.80	-0.000
193.02	-0.000
193.23	-0.000
193.45	-0.000
193.66	-0.000
193.88	-0.000
194.09	-0.000
194.31	-0.000
194.52	-0.000
194.74	-0.000
194.95	-0.000
195.17	-0.000
195.38	-0.000
195.60	-0.000
195.81	-0.000
196.03	-0.000
196.25	-0.000
196.46	-0.000
196.68	-0.000
196.89	-0.000
197.11	-0.000
197.32	-0.000
197.54	-0.000
197.75	-0.000
197.97	-0.000
198.18	-0.000
198.40	-0.000
198.61	-0.000
198.83	-0.000
199.04	-0.000
199.26	-0.000
199.47	-0.000
199.69	-0.000
199.90	-0.000
200.12	-0.000
200.33	-0.000
200.55	-0.000
200.76	-0.000
200.98	-0.000
201.19	-0.000
201.41	-0.000
201.62	-0.000
201.84	-0.000
202.05	-0.000
202.27	-0.000
202.48	-0.000
202.70	-0.000
202.91	-0.000
203.13	-0.000
203.34	-0.000
203.56	-0.000
203.77	-0.000
203.99	-0.000
204.20	-0.000
204.42	-0.000
204.63	-0.000
204.85	-0.000
205.06	-0.000
205.28	-0.000
205.49	-0.000
205.71	-0.000
205.92	-0.000
206.14	-0.000
206.35	-0.000
206.56	-0.000
206.78	-0.000
206.99	-0.000
207.21	-0.000
207.42	-0.000
207.64	-0.000
207.85	-0.000
208.07	-0.000
208.28	-0.000
208.50	-0.000
208.71	-0.000
208.93	-0.000
209.14	-0.000
209.36	-0.000
209.57	-0.000
209.79	-0.000
210.00	-0.000
210.22	-0.000
210.43	-0.000
210.64	-0.000
210.86	-0.000
211.07	-0.000
211.29	-0.000
211.50	-0.000
211.72	-0.000
211.93	-0.000
212.15	-0.000
212.36	-0.000
212.58	-0.000
212.79	-0.000
213.01	-0.000
213.22	-0.000
213.43	-0.000
213.65	-0.000
213.86	-0.000
214.08	-0.000
214.29	-0.000
214.51	-0.000
214.72	-0.000
214.94	-0.000
215.15	-0.000
215.36	-0.000
215.58	-0.000
215.79	-0.000
216.01	-0.000
216.22	-0.000
216.44	-0.000
216.65	-0.000
216.87	-0.000
217.08	-0.000
217.29	-0.000
217.51	-0.000
217.72	-0.000
217.94	-0.000
218.15	-0.000
218.37	-0.000
218.58	-0.000
218.80	-0.000
219.01	-0.000
219.22	-0.000
219.44	-0.000
219.65	-0.000
219.87	-0.000
220.08	-0.000
220.30	-0.000
220.51	-0.000
220.72	-0.000
220.94	-0.000
221.15	-0.000
221.37	-0.000
221.58	-0.000
221.79	-0.000
222.01	-0.000
222.22	-0.000
222.44	-0.000
222.65	-0.000
222.87	-0.000
223.08	-0.000
223.29	-0.000
223.51	-0.000
223.72	-0.000
223.94	-0.000
224.15	-0.000
224.36	-0.000
224.58	-0.000
224.79	-0.000
225.01	-0.000
225.22	-0.000
225.44	-0.000
225.65	-0.000
225.86	-0.000
226.08	-0.000
226.29	-0.000
226.51	-0.000
226.72	-0.000
226.93	-0.000
227.15	-0.000
227.36	-0.000
227.58	-0.000
227.79	-0.000
228.00	-0.000
228.22	-0.000
228.43	-0.000
228.65	-0.000
228.86	-0.000
229.07	-0.000
229.29	-0.000
229.50	-0.000
229.72	-0.000
229.93	-0.000
230.14	-0.000
230.36	-0.000
230.57	-0.000
230.78	-0.000
231.00	-0.000
231.21	-0.000
231.43	-0.000
231.64	-0.000
231.85	-0.000
232.07	-0.000
232.28	-0.000
232.50	-0.000
232.71	-0.000
232.92	-0.000
233.14	-0.000
233.35	-0.000
233.56	-0.000
233.78	-0.000
233.99	-0.000
234.21	-0.000
234.42	-0.000
234.63	-0.000
234.85	-0.000
235.06	-0.000
235.27	-0.000
235.49	-0.000
235.70	-0.000
235.91	-0.000
236.13	-0.000
236.34	-0.000
236.56	-0.000
236.77	-0.000
236.98	-0.000
237.20	-0.000
237.41	-0.000
237.62	-0.000
237.84	-0.000
238.05	-0.000
238.26	-0.000
238.48	-0.000
238.69	-0.000
238.91	-0.000
239.12	-0.000
239.33	-0.000
239.55	-0.000
239.76	-0.000
239.97	-0.000
240.19	-0.000
240.40	-0.000
240.61	-0.000
240.83	-0.000
241.04	-0.000
241.25	-0.000
241.47	-0.000
241.68	-0.000
241.89	-0.000
242.11	-0.000
242.32	-0.000
242.53	-0.000
242.75	-0.000
242.96	-0.000
243.17	-0.000
243.39	-0.000
243.60	-0.000
243.81	-0.000
244.03	-0.000
244.24	-0.000
244.45	-0.000
244.67	-0.000
244.88	-0.000
245.09	-0.000
245.31	-0.000
245.52	-0.000
245.73	-0.000
245.95	-0.000
246.16	-0.000
246.37	-0.000
246.59	-0.000
246.80	-0.000
247.01	-0.000
247.23	-0.000
247.44	-0.000
247.65	-0.000
247.87	-0.000
248.08	-0.000
248.29	-0.000
248.51	-0.000
248.72	-0.000
248.93	-0.000
249.15	-0.000
249.36	-0.000
249.57	-0.000
249.78	-0.000
250.00	-0.000
250.21	-0.000
250.42	-0.000
250.64	-0.000
250.85	-0.000
251.06	-0.000
251.28	-0.000
251.49	-0.000
251.70	-0.000
251.92	-0.000
252.13	-0.000
252.34	-0.000
252.55	-0.000
252.77	-0.000
252.98	-0.000
253.19	-0.000
253.41	-0.000
253.62	-0.000
253.83	-0.000
254.05	-0.000
254.26	-0.000
254.47	-0.000
254.68	-0.000
254.90	-0.000
255.11	-0.000
255.32	-0.000
255.54	-0.000
255.75	-0.000
255.96	-0.000
256.17	-0.000
256.39	-0.000
256.60	-0.000
256.81	-0.000
257.03	-0.000
257.24	-0.000
257.45	-0.000
257.66	-0.000
257.88	-0.000
258.09	-0.000
258.30	-0.000
258.51	-0.000
258.73	-0.000
258.94	-0.000
259.15	-0.000
259.37	-0.000
259.58	-0.000
259.79	-0.000
260.00	-0.000
260.22	-0.000
260.43	-0.000
260.64	-0.000
260.85	-0.000
261.07	-0.000
261.28	-0.000
261.49	-0.000
261.71	-0.000
261.92	-0.000
262.13	-0.000
262.34	-0.000
262.56	-0.000
262.77	-0.000
262.98	-0.000
263.19	-0.000
263.41	-0.000
263.62	-0.000
263.83	-0.000
264.04	-0.000
264.26	-0.000
264.47	-0.000
264.68	-0.000
264.89	-0.000
265.11	-0.000
265.32	-0.000
265.53	-0.000
265.74	-0.000
265.96	-0.000
266.17	-0.000
266.38	-0.000
266.59	-0.000
266.81	-0.000
267.02	-0.000
267.23	-0.000
267.44	-0.000
267.65	-0.000
267.87	-0.000
268.08	-0.000
268.29	-0.000
268.50	-0.000
268.72	-0.000
268.93	-0.000
269.14	-0.000
269.35	-0.000
269.57	-0.000
269.78	-0.000
269.99	-0.000
270.20	-0.000
270.41	-0.000
270.63	-0.000
270.84	-0.000
271.05	-0.000
271.26	-0.000
271.48	-0.000
271.69	-0.000
271.90	-0.000
272.11	-0.000
272.32	-0.000
272.54	-0.000
272.75	-0.000
272.96	-0.000
273.17	-0.000
273.39	-0.000
273.60	-0.000
273.81	-0.000
274.02	-0.000
274.23	-0.000
274.45	-0.000
274.66	-0.000
274.87	-0.000
275.08	-0.000
275.29	-0.000
275.51	-0.000
275.72	-0.000
275.93	-0.000
276.14	-0.000
276.35	-0.000
276.57	-0.000
276.78	-0.000
276.99	-0.000
277.20	-0.000
277.41	-0.000
277.63	-0.000
277.84	-0.000
278.05	-0.000
278.26	-0.000
278.47	-0.000
278.69	-0.000
278.90	-0.000
279.11	-0.000
279.32	-0.000
279.53	-0.000
279.74	-0.000
279.96	-0.000
280.17	-0.000
280.38	-0.000
280.59	-0.000
280.80	-0.000
281.02	-0.000
281.23	-0.000
281.44	-0.000
281.65	-0.000
281.86	-0.000
282.07	-0.000
282.29	-0.000
282.50	-0.000
282.71	-0.000
282.92	-0.000
283.13	-0.000
283.35	-0.000
283.56	-0.000
283.77	-0.000
283.98	-0.000
284.19	-0.000
284.40	-0.000
284.62	-0.000
284.83	-0.000
285.04	-0.000
285.25	-0.000
285.46	-0.000
285.67	-0.000
285.88	-0.000
286.10	-0.000
286.31	-0.000
286.52	-0.000
286.73	-0.000
286.94	-0.000
287.15	-0.000
287.37	-0.000
287.58	-0.000
287.79	-0.000
288.00	-0.000
288.21	-0.000
288.42	-0.000
288.63	-0.000
288.85	-0.000
289.06	-0.000
289.27	-0.000
289.48	-0.000
289.69	-0.000
289.90	-0.000
290.11	-0.000
290.33	-0.000
290.54	-0.000
290.75	-0.000
290.96	-0.000
291.17	-0.000
291.38	-0.000
291.59	-0.000
291.81	-0.000
292.02	-0.000
292.23	-0.000
292.44	-0.000
292.65	-0.000
292.86	-0.000
293.07	-0.000
293.28	2.393
293.50	2.956
293.71	-0.000
293.92	3.408
294.13	-0.000
294.34	-0.000
294.55	-0.000
294.76	-0.000
294.97	3.195
295.19	-0.000
295.40	-0.000
295.61	-0.000
295.82	2.808
296.03	2.280
296.24	2.343
296.45	1.823
296.66	1.633
296.87	1.653
297.09	1.695
297.30	1.821
297.51	1.597
297.72	1.578
297.93	1.622
298.14	1.601
298.35	1.575
298.56	1.552
298.77	1.642
298.99	1.628
299.20	1.615
299.41	1.594
299.62	1.548
299.83	1.544
300.04	1.504
300.25	1.504
300.46	1.527
300.67	1.506
300.88	1.483
301.10	1.483
301.31	1.534
301.52	1.489
301.73	1.450
301.94	1.453
302.15	1.459
302.36	1.418
302.57	1.371
302.78	1.376
302.99	1.411
303.20	1.426
303.41	1.355
303.63	1.339
303.84	1.338
304.05	1.336
304.26	1.289
304.47	1.294
304.68	1.290
304.89	1.282
305.10	1.252
305.31	1.238
305.52	1.273
305.73	1.268
305.94	1.237
306.15	1.230
306.37	1.245
306.58	1.251
306.79	1.229
307.00	1.250
307.21	1.282
307.42	1.276
307.63	1.246
307.84	1.214
308.05	1.242
308.26	1.244
308.47	1.229
308.68	1.228
308.89	1.226
309.10	1.225
309.31	1.192
309.52	1.184
309.73	1.193
309.95	1.190
310.16	1.169
310.37	1.159
310.58	1.173
310.79	1.169
311.00	1.168
311.21	1.169
311.42	1.168
311.63	1.163
311.84	1.149
312.05	1.148
312.26	1.168
312.47	1.177
312.68	1.160
312.89	1.143
313.10	1.146
313.31	1.120
313.52	1.123
313.73	1.122
313.94	1.124
314.15	1.108
314.36	1.090
314.57	1.086
314.78	1.074
314.99	1.068
315.21	1.059
315.42	1.064
315.63	1.074
315.84	1.055
316.05	1.044
316.26	1.051
316.47	1.064
316.68	1.062
316.89	1.042
317.10	1.061
317.31	1.064
317.52	1.064
317.73	1.047
317.94	1.045
318.15	1.082
318.36	1.084
318.57	1.069
318.78	1.058
318.99	1.088
319.20	1.086
319.41	1.055
319.62	1.058
319.83	1.071
320.04	1.066
320.25	1.057
320.46	1.027
320.67	1.027
320.88	1.025
321.09	1.014
321.30	1.000
321.51	1.013
321.72	1.012
321.93	0.998
322.14	0.991
322.35	1.014
322.56	1.016
322.77	1.008
322.98	1.019
323.19	1.025
323.40	1.031
323.61	1.014
323.82	1.009
324.03	1.012
324.24	1.010
324.45	1.000
324.66	0.982
324.87	0.977
325.08	0.975
325.29	0.959
325.50	0.950
325.71	0.953
325.92	0.960
326.13	0.948
326.34	0.949
326.55	0.956
326.76	0.954
326.97	0.946
327.18	0.939
327.39	0.962
327.60	0.963
327.80	0.965
328.01	0.965
328.22	0.964
328.43	0.969
328.64	0.959
328.85	0.962
329.06	0.964
329.27	0.962
329.48	0.959
329.69	0.941
329.90	0.949
330.11	0.943
330.32	0.937
330.53	0.930
330.74	0.927
330.95	0.924
331.16	0.912
331.37	0.918
331.58	0.918
331.79	0.918
332.00	0.911
332.21	0.904
332.42	0.906
332.63	0.898
332.83	0.895
333.04	0.897
333.25	0.909
333.46	0.909
333.67	0.898
333.88	0.900
334.09	0.909
334.30	0.907
334.51	0.900
334.72	0.896
334.93	0.898
335.14	0.898
335.35	0.892
335.56	0.888
335.77	0.894
335.98	0.892
336.18	0.887
336.39	0.880
336.60	0.882
336.81	0.880
337.02	0.881
337.23	0.884
337.44	0.887
337.65	0.888
337.86	0.878
338.07	0.873
338.28	0.877
338.49	0.875
338.70	0.868
338.91	0.874
339.11	0.880
339.32	0.876
339.53	0.867
339.74	0.864
339.95	0.860
340.16	0.860
340.37	0.854
340.58	0.850
340.79	0.854
341.00	0.855
341.21	0.846
341.41	0.846
341.62	0.847
341.83	0.847
342.04	0.842
342.25	0.852
342.46	0.854
342.67	0.853
342.88	0.849
343.09	0.847
343.30	0.852
343.50	0.855
343.71	0.846
343.92	0.844
344.13	0.849
344.34	0.848
344.55	0.833
344.76	0.833
344.97	0.837
345.18	0.836
345.38	0.834
345.59	0.830
345.80	0.828
346.01	0.826
346.22	0.823
346.43	0.817
346.64	0.825
346.85	0.825
347.06	0.819
347.26	0.819
347.47	0.821
347.68	0.817
347.89	0.814
348.10	0.809
348.31	0.815
348.52	0.814
348.73	0.812
348.93	0.809
349.14	0.811
349.35	0.810
349.56	0.804
349.77	0.800
349.98	0.803
350.19	0.801
350.39	0.796
350.60	0.792
350.81	0.806
351.02	0.805
351.23	0.800
351.44	0.803
351.65	0.804
351.86	0.803
352.06	0.802
352.27	0.802
352.48	0.803
352.69	0.802
352.90	0.798
353.11	0.785
353.31	0.791
353.52	0.788
353.73	0.781
353.94	0.783
354.15	0.788
354.36	0.788
354.57	0.782
354.77	0.784
354.98	0.784
355.19	0.784
355.40	0.784
355.61	0.789
355.82	0.792
356.02	0.791
356.23	0.784
356.44	0.785
356.65	0.787
356.86	0.787
357.07	0.782
357.27	0.784
357.48	0.785
357.69	0.781
357.90	0.767
358.11	0.764
358.32	0.767
358.52	0.770
358.73	0.762
358.94	0.764
359.15	0.768
359.36	0.769
359.56	0.766
359.77	0.764
359.98	0.770
360.19	0.770
360.40	0.768
360.61	0.769
360.81	0.767
361.02	0.767
361.23	0.760
361.44	0.758
361.65	0.757
361.85	0.757
362.06	0.756
362.27	0.757
362.48	0.757
362.69	0.759
362.89	0.753
363.10	0.755
363.31	0.760
363.52	0.763
363.73	0.759
363.93	0.758
364.14	0.759
364.35	0.761
364.56	0.751
364.77	0.753
364.97	0.756
365.18	0.756
365.39	0.750
365.60	0.747
365.81	0.747
366.01	0.746
366.22	0.744
366.43	0.743
366.64	0.744
366.84	0.750
367.05	0.746
367.26	0.745
367.47	0.746
367.68	0.746
367.88	0.744
368.09	0.742
368.30	0.744
368.51	0.745
368.71	0.745
368.92	0.749
369.13	0.746
369.34	0.746
369.55	0.746
369.75	0.746
369.96	0.753
370.17	0.753
370.38	0.751
370.58	0.750
370.79	0.754
371.00	0.754
371.21	0.746
371.41	0.751
371.62	0.754
371.83	0.750
372.04	0.748
372.24	0.741
372.45	0.742
372.66	0.742
372.87	0.740
373.07	0.737
373.28	0.736
373.49	0.740
373.70	0.732
373.90	0.732
374.11	0.739
374.32	0.739
374.53	0.739
374.73	0.739
374.94	0.741
375.15	0.741
375.36	0.739
375.56	0.746
375.77	0.745
375.98	0.745
376.19	0.742
376.39	0.737
376.60	0.740
376.81	0.740
377.02	0.738
377.22	0.738
377.43	0.738
377.64	0.737
377.84	0.731
378.05	0.735
378.26	0.741
378.47	0.741
378.67	0.739
378.88	0.736
379.09	0.736
379.30	0.736
379.50	0.734
379.71	0.736
379.92	0.739
380.12	0.738
380.33	0.730
380.54	0.726
380.75	0.732
380.95	0.732
381.16	0.731
381.37	0.731
381.57	0.733
381.78	0.734
381.99	0.734
382.20	0.733
382.40	0.735
382.61	0.736
382.82	0.733
383.02	0.727
383.23	0.729
383.44	0.730
383.64	0.728
383.85	0.729
384.06	0.732
384.27	0.730
384.47	0.729
384.68	0.730
384.89	0.735
385.09	0.735
385.30	0.735
385.51	0.735
385.71	0.737
385.92	0.738
386.13	0.738
386.33	0.739
386.54	0.739
386.75	0.738
386.95	0.735
387.16	0.731
387.37	0.733
387.58	0.732
387.78	0.731
387.99	0.729
388.20	0.731
388.40	0.728
388.61	0.724
388.82	0.728
389.02	0.730
389.23	0.730
389.44	0.729
389.64	0.729
389.85	0.741
390.06	0.740
390.26	0.741
390.47	0.740
390.68	0.743
390.88	0.741
391.09	0.737
391.30	0.737
391.50	0.736
391.71	0.736
391.92	0.734
392.12	0.726
392.33	0.726
392.53	0.725
392.74	0.726
392.95	0.725
393.15	0.728
393.36	0.729
393.57	0.728
393.77	0.731
393.98	0.732
394.19	0.731
394.39	0.731
394.60	0.733
394.81	0.735
395.01	0.733
395.22	0.732
395.43	0.733
395.63	0.737
395.84	0.739
396.04	0.735
396.25	0.737
396.46	0.740
396.66	0.738
396.87	0.736
397.08	0.733
397.28	0.735
397.49	0.737
397.69	0.734
397.90	0.729
398.11	0.730
398.31	0.731
398.52	0.728
398.73	0.729
398.93	0.729
399.14	0.728
399.34	0.728
399.55	0.729
399.76	0.728
399.96	0.729
400.17	0.728
400.37	0.727
400.58	0.733
400.79	0.735
400.99	0.732
401.20	0.738
401.41	0.740
401.61	0.740
401.82	0.746
402.02	0.746
402.23	0.747
402.44	0.747
402.64	0.747
402.85	0.741
403.05	0.740
403.26	0.739
403.47	0.734
403.67	0.733
403.88	0.734
404.08	0.728
404.29	0.726
404.50	0.726
404.70	0.726
404.91	0.725
405.11	0.723
405.32	0.723
405.52	0.723
405.73	0.723
405.94	0.721
406.14	0.723
406.35	0.725
406.55	0.725
406.76	0.723
406.97	0.725
407.17	0.728
407.38	0.727
407.58	0.726
407.79	0.729
407.99	0.732
408.20	0.733
408.41	0.729
408.61	0.727
408.82	0.727
409.02	0.727
409.23	0.725
409.43	0.724
409.64	0.725
409.84	0.724
410.05	0.721
410.26	0.719
410.46	0.718
410.67	0.718
410.87	0.720
411.08	0.722
411.28	0.723
411.49	0.725
411.69	0.723
411.90	0.724
412.11	0.726
412.31	0.727
412.52	0.725
412.72	0.726
412.93	0.726
413.13	0.725
413.34	0.721
413.54	0.723
413.75	0.725
413.95	0.724
414.16	0.721
414.37	0.723
414.57	0.723
414.78	0.726
414.98	0.725
415.19	0.726
415.39	0.722
415.60	0.725
415.80	0.723
416.01	0.721
416.21	0.723
416.42	0.723
416.62	0.719
416.83	0.719
417.03	0.718
417.24	0.718
417.44	0.716
417.65	0.716
417.86	0.716
418.06	0.714
418.27	0.713
418.47	0.715
418.68	0.715
418.88	0.715
419.09	0.714
419.29	0.715
419.50	0.715
419.70	0.715
419.91	0.714
420.11	0.712
420.32	0.714
420.52	0.714
420.73	0.713
420.93	0.714
421.14	0.716
421.34	0.714
421.55	0.711
421.75	0.711
421.96	0.711
422.16	0.711
422.37	0.710
422.57	0.707
422.78	0.708
422.98	0.705
423.19	0.703
423.39	0.700
423.60	0.704
423.80	0.705
424.01	0.703
424.21	0.706
424.42	0.706
424.62	0.706
424.83	0.706
425.03	0.706
425.23	0.707
425.44	0.707
425.64	0.708
425.85	0.707
426.05	0.707
426.26	0.709
426.46	0.705
426.67	0.705
426.87	0.710
427.08	0.711
427.28	0.709
427.49	0.710
427.69	0.711
427.90	0.709
428.10	0.707
428.31	0.707
428.51	0.708
428.71	0.708
428.92	0.709
429.12	0.705
429.33	0.705
429.53	0.709
429.74	0.713
429.94	0.713
430.15	0.712
430.35	0.711
430.56	0.708
430.76	0.706
430.96	0.706
431.17	0.703
431.37	0.701
431.58	0.700
431.78	0.696
431.99	0.689
432.19	0.691
432.40	0.692
432.60	0.693
432.80	0.695
433.01	0.694
433.21	0.694
433.42	0.696
433.62	0.696
433.83	0.696
434.03	0.699
434.23	0.702
434.44	0.701
434.64	0.699
434.85	0.704
435.05	0.705
435.26	0.705
435.46	0.704
435.66	0.703
435.87	0.703
436.07	0.702
436.28	0.698
436.48	0.696
436.69	0.695
436.89	0.695
437.09	0.689
437.30	0.688
437.50	0.688
437.71	0.700
437.91	0.698
438.11	0.699
438.32	0.703
438.52	0.704
438.73	0.703
438.93	0.701
439.13	0.700
439.34	0.704
439.54	0.702
439.75	0.702
439.95	0.691
440.15	0.696
440.36	0.695
440.56	0.692
440.77	0.692
440.97	0.692
441.17	0.691
441.38	0.692
441.58	0.689
441.79	0.688
441.99	0.687
442.19	0.686
442.40	0.683
442.60	0.683
442.81	0.681
443.01	0.682
443.21	0.682
443.42	0.682
443.62	0.680
443.82	0.680
444.03	0.682
444.23	0.681
444.44	0.682
444.64	0.681
444.84	0.682
445.05	0.682
445.25	0.680
445.45	0.680
445.66	0.682
445.86	0.682
446.06	0.683
446.27	0.682
446.47	0.685
446.68	0.683
446.88	0.682
447.08	0.681
447.29	0.683
447.49	0.683
447.69	0.682
447.90	0.680
448.10	0.683
448.30	0.681
448.51	0.682
448.71	0.679
448.91	0.681
449.12	0.680
449.32	0.682
449.52	0.681
449.73	0.685
449.93	0.684
450.14	0.684
450.34	0.683
450.54	0.686
450.75	0.683
450.95	0.683
451.15	0.682
451.36	0.685
451.56	0.681
451.76	0.681
451.97	0.678
452.17	0.678
452.37	0.676
452.58	0.673
452.78	0.672
452.98	0.674
453.19	0.674
453.39	0.675
453.59	0.673
453.79	0.673
454.00	0.673
454.20	0.672
454.40	0.672
454.61	0.674
454.81	0.674
455.01	0.673
455.22	0.674
455.42	0.675
455.62	0.673
455.83	0.673
456.03	0.676
456.23	0.676
456.44	0.678
456.64	0.677
456.84	0.676
457.04	0.677
457.25	0.676
457.45	0.673
457.65	0.672
457.86	0.673
458.06	0.672
458.26	0.668
458.47	0.667
458.67	0.668
458.87	0.668
459.07	0.666
459.28	0.668
459.48	0.669
459.68	0.668
459.89	0.668
