SpectraSuite Data File
++++++++++++++++++++++++++++++++++++
Date: Fri Jun 19 15:39:31 CEST 2015
User: introlabs
Dark Spectrum Present: Yes
Reference Spectrum Present: Yes
Number of Sampled Component Spectra: 1
Spectrometers: USB4H08886
Integration Time (usec): 745692 (USB4H08886)
Spectra Averaged: 5 (USB4H08886)
Boxcar Smoothing: 5 (USB4H08886)
Correct for Electrical Dark: Yes (USB4H08886)
Strobe/Lamp Enabled: No (USB4H08886)
Correct for Detector Non-linearity: Yes (USB4H08886)
Correct for Stray Light: Yes (USB4H08886)
Number of Pixels in Processed Spectrum: 3648
>>>>>Begin Processed Spectral Data<<<<<
178.14	-0.000
178.36	-0.000
178.57	-0.000
178.79	-0.000
179.01	-0.000
179.22	-0.000
179.44	-0.000
179.65	-0.000
179.87	-0.000
180.08	-0.000
180.30	-0.000
180.52	-0.000
180.73	-0.000
180.95	-0.000
181.16	-0.000
181.38	-0.000
181.59	-0.000
181.81	-0.000
182.03	-0.000
182.24	-0.000
182.46	-0.000
182.67	-0.000
182.89	-0.000
183.10	-0.000
183.32	-0.000
183.54	-0.000
183.75	-0.000
183.97	-0.000
184.18	-0.000
184.40	-0.000
184.61	-0.000
184.83	-0.000
185.04	-0.000
185.26	-0.000
185.48	-0.000
185.69	-0.000
185.91	-0.000
186.12	-0.000
186.34	-0.000
186.55	-0.000
186.77	-0.000
186.98	-0.000
187.20	-0.000
187.42	-0.000
187.63	-0.000
187.85	-0.000
188.06	-0.000
188.28	-0.000
188.49	-0.000
188.71	-0.000
188.92	-0.000
189.14	-0.000
189.36	-0.000
189.57	-0.000
189.79	-0.000
190.00	-0.000
190.22	-0.000
190.43	-0.000
190.65	-0.000
190.86	-0.000
191.08	-0.000
191.29	-0.000
191.51	-0.000
191.72	-0.000
191.94	-0.000
192.16	-0.000
192.37	-0.000
192.59	-0.000
192.80	-0.000
193.02	-0.000
193.23	-0.000
193.45	-0.000
193.66	-0.000
193.88	-0.000
194.09	-0.000
194.31	-0.000
194.52	-0.000
194.74	-0.000
194.95	-0.000
195.17	-0.000
195.38	-0.000
195.60	-0.000
195.81	-0.000
196.03	-0.000
196.25	-0.000
196.46	-0.000
196.68	-0.000
196.89	-0.000
197.11	-0.000
197.32	-0.000
197.54	-0.000
197.75	-0.000
197.97	-0.000
198.18	-0.000
198.40	-0.000
198.61	-0.000
198.83	-0.000
199.04	-0.000
199.26	-0.000
199.47	-0.000
199.69	-0.000
199.90	-0.000
200.12	-0.000
200.33	-0.000
200.55	-0.000
200.76	-0.000
200.98	-0.000
201.19	-0.000
201.41	-0.000
201.62	-0.000
201.84	-0.000
202.05	-0.000
202.27	-0.000
202.48	-0.000
202.70	-0.000
202.91	-0.000
203.13	-0.000
203.34	-0.000
203.56	-0.000
203.77	-0.000
203.99	-0.000
204.20	-0.000
204.42	-0.000
204.63	-0.000
204.85	-0.000
205.06	-0.000
205.28	-0.000
205.49	-0.000
205.71	-0.000
205.92	-0.000
206.14	-0.000
206.35	-0.000
206.56	-0.000
206.78	-0.000
206.99	-0.000
207.21	-0.000
207.42	-0.000
207.64	-0.000
207.85	-0.000
208.07	-0.000
208.28	-0.000
208.50	-0.000
208.71	-0.000
208.93	-0.000
209.14	-0.000
209.36	-0.000
209.57	-0.000
209.79	-0.000
210.00	-0.000
210.22	-0.000
210.43	-0.000
210.64	-0.000
210.86	-0.000
211.07	-0.000
211.29	-0.000
211.50	-0.000
211.72	-0.000
211.93	-0.000
212.15	-0.000
212.36	-0.000
212.58	-0.000
212.79	-0.000
213.01	-0.000
213.22	-0.000
213.43	-0.000
213.65	-0.000
213.86	-0.000
214.08	-0.000
214.29	-0.000
214.51	-0.000
214.72	-0.000
214.94	-0.000
215.15	-0.000
215.36	-0.000
215.58	-0.000
215.79	-0.000
216.01	-0.000
216.22	-0.000
216.44	-0.000
216.65	-0.000
216.87	-0.000
217.08	-0.000
217.29	-0.000
217.51	-0.000
217.72	-0.000
217.94	-0.000
218.15	-0.000
218.37	-0.000
218.58	-0.000
218.80	-0.000
219.01	-0.000
219.22	-0.000
219.44	-0.000
219.65	-0.000
219.87	-0.000
220.08	-0.000
220.30	-0.000
220.51	-0.000
220.72	-0.000
220.94	-0.000
221.15	-0.000
221.37	-0.000
221.58	-0.000
221.79	-0.000
222.01	-0.000
222.22	-0.000
222.44	-0.000
222.65	-0.000
222.87	-0.000
223.08	-0.000
223.29	-0.000
223.51	-0.000
223.72	-0.000
223.94	-0.000
224.15	-0.000
224.36	-0.000
224.58	-0.000
224.79	-0.000
225.01	-0.000
225.22	-0.000
225.44	-0.000
225.65	-0.000
225.86	-0.000
226.08	-0.000
226.29	-0.000
226.51	-0.000
226.72	-0.000
226.93	-0.000
227.15	-0.000
227.36	-0.000
227.58	-0.000
227.79	-0.000
228.00	-0.000
228.22	-0.000
228.43	-0.000
228.65	-0.000
228.86	-0.000
229.07	-0.000
229.29	-0.000
229.50	-0.000
229.72	-0.000
229.93	-0.000
230.14	-0.000
230.36	-0.000
230.57	-0.000
230.78	-0.000
231.00	-0.000
231.21	-0.000
231.43	-0.000
231.64	-0.000
231.85	-0.000
232.07	-0.000
232.28	-0.000
232.50	-0.000
232.71	-0.000
232.92	-0.000
233.14	-0.000
233.35	-0.000
233.56	-0.000
233.78	-0.000
233.99	-0.000
234.21	-0.000
234.42	-0.000
234.63	-0.000
234.85	-0.000
235.06	-0.000
235.27	-0.000
235.49	-0.000
235.70	-0.000
235.91	-0.000
236.13	-0.000
236.34	-0.000
236.56	-0.000
236.77	-0.000
236.98	-0.000
237.20	-0.000
237.41	-0.000
237.62	-0.000
237.84	-0.000
238.05	-0.000
238.26	-0.000
238.48	-0.000
238.69	-0.000
238.91	-0.000
239.12	-0.000
239.33	-0.000
239.55	-0.000
239.76	-0.000
239.97	-0.000
240.19	-0.000
240.40	-0.000
240.61	-0.000
240.83	-0.000
241.04	-0.000
241.25	-0.000
241.47	-0.000
241.68	-0.000
241.89	-0.000
242.11	-0.000
242.32	-0.000
242.53	-0.000
242.75	-0.000
242.96	-0.000
243.17	-0.000
243.39	-0.000
243.60	-0.000
243.81	-0.000
244.03	-0.000
244.24	-0.000
244.45	-0.000
244.67	-0.000
244.88	-0.000
245.09	-0.000
245.31	-0.000
245.52	-0.000
245.73	-0.000
245.95	-0.000
246.16	-0.000
246.37	-0.000
246.59	-0.000
246.80	-0.000
247.01	-0.000
247.23	-0.000
247.44	-0.000
247.65	-0.000
247.87	-0.000
248.08	-0.000
248.29	-0.000
248.51	-0.000
248.72	-0.000
248.93	-0.000
249.15	-0.000
249.36	-0.000
249.57	-0.000
249.78	-0.000
250.00	-0.000
250.21	-0.000
250.42	-0.000
250.64	-0.000
250.85	-0.000
251.06	-0.000
251.28	-0.000
251.49	-0.000
251.70	-0.000
251.92	-0.000
252.13	-0.000
252.34	-0.000
252.55	-0.000
252.77	-0.000
252.98	-0.000
253.19	-0.000
253.41	-0.000
253.62	-0.000
253.83	-0.000
254.05	-0.000
254.26	-0.000
254.47	-0.000
254.68	-0.000
254.90	-0.000
255.11	-0.000
255.32	-0.000
255.54	-0.000
255.75	-0.000
255.96	-0.000
256.17	-0.000
256.39	-0.000
256.60	-0.000
256.81	-0.000
257.03	-0.000
257.24	-0.000
257.45	-0.000
257.66	-0.000
257.88	-0.000
258.09	-0.000
258.30	-0.000
258.51	-0.000
258.73	-0.000
258.94	-0.000
259.15	-0.000
259.37	-0.000
259.58	-0.000
259.79	-0.000
260.00	-0.000
260.22	-0.000
260.43	-0.000
260.64	-0.000
260.85	-0.000
261.07	-0.000
261.28	-0.000
261.49	-0.000
261.71	-0.000
261.92	-0.000
262.13	-0.000
262.34	-0.000
262.56	-0.000
262.77	-0.000
262.98	-0.000
263.19	-0.000
263.41	-0.000
263.62	-0.000
263.83	-0.000
264.04	-0.000
264.26	-0.000
264.47	-0.000
264.68	-0.000
264.89	-0.000
265.11	-0.000
265.32	-0.000
265.53	-0.000
265.74	-0.000
265.96	-0.000
266.17	-0.000
266.38	-0.000
266.59	-0.000
266.81	-0.000
267.02	-0.000
267.23	-0.000
267.44	-0.000
267.65	-0.000
267.87	-0.000
268.08	-0.000
268.29	-0.000
268.50	-0.000
268.72	-0.000
268.93	-0.000
269.14	-0.000
269.35	-0.000
269.57	-0.000
269.78	-0.000
269.99	-0.000
270.20	-0.000
270.41	-0.000
270.63	-0.000
270.84	-0.000
271.05	-0.000
271.26	-0.000
271.48	-0.000
271.69	-0.000
271.90	-0.000
272.11	-0.000
272.32	-0.000
272.54	-0.000
272.75	-0.000
272.96	-0.000
273.17	-0.000
273.39	-0.000
273.60	-0.000
273.81	-0.000
274.02	-0.000
274.23	-0.000
274.45	-0.000
274.66	-0.000
274.87	-0.000
275.08	-0.000
275.29	-0.000
275.51	-0.000
275.72	-0.000
275.93	-0.000
276.14	-0.000
276.35	-0.000
276.57	-0.000
276.78	-0.000
276.99	-0.000
277.20	-0.000
277.41	-0.000
277.63	-0.000
277.84	-0.000
278.05	-0.000
278.26	-0.000
278.47	-0.000
278.69	-0.000
278.90	-0.000
279.11	-0.000
279.32	-0.000
279.53	-0.000
279.74	-0.000
279.96	-0.000
280.17	-0.000
280.38	-0.000
280.59	-0.000
280.80	-0.000
281.02	-0.000
281.23	-0.000
281.44	-0.000
281.65	-0.000
281.86	-0.000
282.07	-0.000
282.29	-0.000
282.50	-0.000
282.71	-0.000
282.92	-0.000
283.13	-0.000
283.35	-0.000
283.56	-0.000
283.77	-0.000
283.98	-0.000
284.19	-0.000
284.40	-0.000
284.62	-0.000
284.83	-0.000
285.04	-0.000
285.25	-0.000
285.46	-0.000
285.67	-0.000
285.88	-0.000
286.10	-0.000
286.31	-0.000
286.52	-0.000
286.73	-0.000
286.94	-0.000
287.15	-0.000
287.37	-0.000
287.58	-0.000
287.79	-0.000
288.00	-0.000
288.21	-0.000
288.42	-0.000
288.63	-0.000
288.85	-0.000
289.06	-0.000
289.27	-0.000
289.48	-0.000
289.69	-0.000
289.90	-0.000
290.11	-0.000
290.33	-0.000
290.54	-0.000
290.75	-0.000
290.96	-0.000
291.17	-0.000
291.38	-0.000
291.59	-0.000
291.81	-0.000
292.02	-0.000
292.23	-0.000
292.44	-0.000
292.65	-0.000
292.86	-0.000
293.07	-0.000
293.28	-0.000
293.50	-0.000
293.71	-0.000
293.92	-0.000
294.13	-0.000
294.34	-0.000
294.55	-0.000
294.76	-0.000
294.97	-0.000
295.19	-0.000
295.40	-0.000
295.61	-0.000
295.82	-0.000
296.03	3.119
296.24	-0.000
296.45	1.986
296.66	1.703
296.87	1.723
297.09	1.764
297.30	1.913
297.51	1.638
297.72	1.616
297.93	1.685
298.14	1.658
298.35	1.610
298.56	1.597
298.77	1.693
298.99	1.685
299.20	1.672
299.41	1.643
299.62	1.593
299.83	1.589
300.04	1.540
300.25	1.536
300.46	1.572
300.67	1.548
300.88	1.503
301.10	1.509
301.31	1.566
301.52	1.509
301.73	1.470
301.94	1.472
302.15	1.485
302.36	1.443
302.57	1.387
302.78	1.390
302.99	1.427
303.20	1.440
303.41	1.363
303.63	1.349
303.84	1.351
304.05	1.350
304.26	1.302
304.47	1.305
304.68	1.305
304.89	1.298
305.10	1.264
305.31	1.255
305.52	1.301
305.73	1.293
305.94	1.255
306.15	1.249
306.37	1.265
306.58	1.272
306.79	1.246
307.00	1.266
307.21	1.301
307.42	1.294
307.63	1.263
307.84	1.228
308.05	1.260
308.26	1.261
308.47	1.244
308.68	1.240
308.89	1.238
309.10	1.236
309.31	1.202
309.52	1.195
309.73	1.209
309.95	1.203
310.16	1.176
310.37	1.165
310.58	1.181
310.79	1.180
311.00	1.179
311.21	1.179
311.42	1.177
311.63	1.172
311.84	1.156
312.05	1.154
312.26	1.173
312.47	1.188
312.68	1.169
312.89	1.151
313.10	1.154
313.31	1.128
313.52	1.133
313.73	1.135
313.94	1.137
314.15	1.119
314.36	1.100
314.57	1.095
314.78	1.080
314.99	1.074
315.21	1.065
315.42	1.070
315.63	1.081
315.84	1.059
316.05	1.048
316.26	1.053
316.47	1.070
316.68	1.066
316.89	1.046
317.10	1.064
317.31	1.067
317.52	1.067
317.73	1.051
317.94	1.051
318.15	1.091
318.36	1.091
318.57	1.076
318.78	1.064
318.99	1.098
319.20	1.096
319.41	1.065
319.62	1.068
319.83	1.078
320.04	1.072
320.25	1.059
320.46	1.029
320.67	1.029
320.88	1.025
321.09	1.015
321.30	1.000
321.51	1.014
321.72	1.013
321.93	0.999
322.14	0.994
322.35	1.018
322.56	1.018
322.77	1.007
322.98	1.019
323.19	1.026
323.40	1.032
323.61	1.012
323.82	1.006
324.03	1.010
324.24	1.009
324.45	0.996
324.66	0.979
324.87	0.974
325.08	0.973
325.29	0.956
325.50	0.949
325.71	0.953
325.92	0.961
326.13	0.948
326.34	0.948
326.55	0.955
326.76	0.953
326.97	0.944
327.18	0.941
327.39	0.964
327.60	0.964
327.80	0.965
328.01	0.964
328.22	0.963
328.43	0.968
328.64	0.957
328.85	0.959
329.06	0.962
329.27	0.960
329.48	0.956
329.69	0.938
329.90	0.947
330.11	0.940
330.32	0.934
330.53	0.926
330.74	0.927
330.95	0.926
331.16	0.914
331.37	0.923
331.58	0.923
331.79	0.921
332.00	0.915
332.21	0.910
332.42	0.913
332.63	0.904
332.83	0.903
333.04	0.905
333.25	0.916
333.46	0.914
333.67	0.900
333.88	0.903
334.09	0.913
334.30	0.910
334.51	0.902
334.72	0.898
334.93	0.901
335.14	0.900
335.35	0.892
335.56	0.888
335.77	0.895
335.98	0.895
336.18	0.889
336.39	0.881
336.60	0.884
336.81	0.882
337.02	0.881
337.23	0.884
337.44	0.886
337.65	0.888
337.86	0.879
338.07	0.875
338.28	0.879
338.49	0.877
338.70	0.870
338.91	0.876
339.11	0.881
339.32	0.878
339.53	0.869
339.74	0.866
339.95	0.861
340.16	0.861
340.37	0.854
340.58	0.852
340.79	0.854
341.00	0.854
341.21	0.845
341.41	0.846
341.62	0.847
341.83	0.849
342.04	0.844
342.25	0.855
342.46	0.857
342.67	0.856
342.88	0.850
343.09	0.849
343.30	0.855
343.50	0.859
343.71	0.850
343.92	0.848
344.13	0.851
344.34	0.851
344.55	0.835
344.76	0.836
344.97	0.840
345.18	0.838
345.38	0.836
345.59	0.830
345.80	0.829
346.01	0.827
346.22	0.823
346.43	0.817
346.64	0.824
346.85	0.823
347.06	0.816
347.26	0.815
347.47	0.819
347.68	0.814
347.89	0.812
348.10	0.806
348.31	0.811
348.52	0.811
348.73	0.809
348.93	0.806
349.14	0.808
349.35	0.808
349.56	0.802
349.77	0.798
349.98	0.804
350.19	0.801
350.39	0.799
350.60	0.795
350.81	0.810
351.02	0.808
351.23	0.804
351.44	0.805
351.65	0.807
351.86	0.805
352.06	0.804
352.27	0.803
352.48	0.804
352.69	0.802
352.90	0.797
353.11	0.784
353.31	0.791
353.52	0.787
353.73	0.781
353.94	0.782
354.15	0.787
354.36	0.787
354.57	0.779
354.77	0.781
354.98	0.781
355.19	0.781
355.40	0.780
355.61	0.785
355.82	0.789
356.02	0.789
356.23	0.782
356.44	0.784
356.65	0.786
356.86	0.787
357.07	0.781
357.27	0.785
357.48	0.786
357.69	0.782
357.90	0.767
358.11	0.764
358.32	0.767
358.52	0.769
358.73	0.760
358.94	0.763
359.15	0.767
359.36	0.768
359.56	0.764
359.77	0.761
359.98	0.767
360.19	0.768
360.40	0.765
360.61	0.766
360.81	0.764
361.02	0.765
361.23	0.758
361.44	0.756
361.65	0.756
361.85	0.756
362.06	0.753
362.27	0.755
362.48	0.755
362.69	0.757
362.89	0.751
363.10	0.753
363.31	0.758
363.52	0.761
363.73	0.756
363.93	0.755
364.14	0.756
364.35	0.758
364.56	0.748
364.77	0.750
364.97	0.752
365.18	0.752
365.39	0.747
365.60	0.745
365.81	0.745
366.01	0.745
366.22	0.744
366.43	0.743
366.64	0.744
366.84	0.749
367.05	0.746
367.26	0.746
367.47	0.748
367.68	0.748
367.88	0.745
368.09	0.742
368.30	0.744
368.51	0.743
368.71	0.742
368.92	0.747
369.13	0.745
369.34	0.744
369.55	0.743
369.75	0.743
369.96	0.749
370.17	0.749
370.38	0.747
370.58	0.746
370.79	0.751
371.00	0.749
371.21	0.741
371.41	0.746
371.62	0.750
371.83	0.746
372.04	0.745
372.24	0.739
372.45	0.740
372.66	0.739
372.87	0.737
373.07	0.734
373.28	0.735
373.49	0.739
373.70	0.731
373.90	0.730
374.11	0.738
374.32	0.737
374.53	0.736
374.73	0.736
374.94	0.738
375.15	0.739
375.36	0.736
375.56	0.745
375.77	0.744
375.98	0.744
376.19	0.741
376.39	0.734
376.60	0.738
376.81	0.738
377.02	0.736
377.22	0.735
377.43	0.735
377.64	0.735
377.84	0.726
378.05	0.730
378.26	0.736
378.47	0.735
378.67	0.732
378.88	0.730
379.09	0.731
379.30	0.732
379.50	0.730
379.71	0.732
379.92	0.734
380.12	0.734
380.33	0.727
380.54	0.723
380.75	0.730
380.95	0.731
381.16	0.730
381.37	0.729
381.57	0.730
381.78	0.730
381.99	0.730
382.20	0.729
382.40	0.732
382.61	0.732
382.82	0.729
383.02	0.722
383.23	0.725
383.44	0.725
383.64	0.724
383.85	0.727
384.06	0.729
384.27	0.727
384.47	0.726
384.68	0.726
384.89	0.732
385.09	0.732
385.30	0.733
385.51	0.731
385.71	0.734
385.92	0.735
386.13	0.734
386.33	0.736
386.54	0.737
386.75	0.735
386.95	0.732
387.16	0.727
387.37	0.730
387.58	0.729
387.78	0.727
387.99	0.725
388.20	0.726
388.40	0.723
388.61	0.719
388.82	0.722
389.02	0.724
389.23	0.724
389.44	0.723
389.64	0.724
389.85	0.735
390.06	0.735
390.26	0.736
390.47	0.736
390.68	0.738
390.88	0.736
391.09	0.732
391.30	0.731
391.50	0.731
391.71	0.731
391.92	0.728
392.12	0.721
392.33	0.721
392.53	0.721
392.74	0.721
392.95	0.721
393.15	0.723
393.36	0.725
393.57	0.724
393.77	0.727
393.98	0.729
394.19	0.728
394.39	0.727
394.60	0.729
394.81	0.731
395.01	0.729
395.22	0.728
395.43	0.729
395.63	0.733
395.84	0.735
396.04	0.732
396.25	0.734
396.46	0.736
396.66	0.734
396.87	0.732
397.08	0.729
397.28	0.731
397.49	0.733
397.69	0.730
397.90	0.725
398.11	0.726
398.31	0.726
398.52	0.723
398.73	0.723
398.93	0.722
399.14	0.721
399.34	0.721
399.55	0.722
399.76	0.722
399.96	0.722
400.17	0.721
400.37	0.719
400.58	0.725
400.79	0.728
400.99	0.726
401.20	0.731
401.41	0.734
401.61	0.734
401.82	0.740
402.02	0.740
402.23	0.741
402.44	0.741
402.64	0.741
402.85	0.735
403.05	0.734
403.26	0.733
403.47	0.727
403.67	0.727
403.88	0.728
404.08	0.721
404.29	0.720
404.50	0.719
404.70	0.719
404.91	0.720
405.11	0.717
405.32	0.717
405.52	0.717
405.73	0.716
405.94	0.715
406.14	0.717
406.35	0.719
406.55	0.718
406.76	0.716
406.97	0.717
407.17	0.719
407.38	0.720
407.58	0.718
407.79	0.722
407.99	0.724
408.20	0.725
408.41	0.722
408.61	0.720
408.82	0.721
409.02	0.721
409.23	0.719
409.43	0.717
409.64	0.718
409.84	0.717
410.05	0.714
410.26	0.712
410.46	0.711
410.67	0.710
410.87	0.712
411.08	0.714
411.28	0.715
411.49	0.716
411.69	0.715
411.90	0.716
412.11	0.717
412.31	0.718
412.52	0.717
412.72	0.718
412.93	0.719
413.13	0.718
413.34	0.715
413.54	0.717
413.75	0.719
413.95	0.719
414.16	0.716
414.37	0.719
414.57	0.719
414.78	0.721
414.98	0.720
415.19	0.721
415.39	0.718
415.60	0.720
415.80	0.719
416.01	0.717
416.21	0.718
416.42	0.717
416.62	0.712
416.83	0.713
417.03	0.711
417.24	0.711
417.44	0.709
417.65	0.709
417.86	0.709
418.06	0.707
418.27	0.705
418.47	0.706
418.68	0.708
418.88	0.709
419.09	0.707
419.29	0.708
419.50	0.708
419.70	0.708
419.91	0.707
420.11	0.705
420.32	0.707
420.52	0.707
420.73	0.706
420.93	0.706
421.14	0.708
421.34	0.707
421.55	0.704
421.75	0.704
421.96	0.704
422.16	0.704
422.37	0.703
422.57	0.700
422.78	0.702
422.98	0.698
423.19	0.696
423.39	0.695
423.60	0.697
423.80	0.698
424.01	0.697
424.21	0.699
424.42	0.700
424.62	0.700
424.83	0.699
425.03	0.699
425.23	0.701
425.44	0.701
425.64	0.701
425.85	0.700
426.05	0.701
426.26	0.702
426.46	0.698
426.67	0.698
426.87	0.703
427.08	0.703
427.28	0.701
427.49	0.702
427.69	0.703
427.90	0.701
428.10	0.698
428.31	0.699
428.51	0.700
428.71	0.700
428.92	0.701
429.12	0.698
429.33	0.698
429.53	0.702
429.74	0.706
429.94	0.706
430.15	0.706
430.35	0.706
430.56	0.703
430.76	0.702
430.96	0.703
431.17	0.699
431.37	0.697
431.58	0.695
431.78	0.691
431.99	0.684
432.19	0.686
432.40	0.688
432.60	0.688
432.80	0.691
433.01	0.690
433.21	0.690
433.42	0.692
433.62	0.692
433.83	0.692
434.03	0.695
434.23	0.697
434.44	0.696
434.64	0.694
434.85	0.698
435.05	0.699
435.26	0.699
435.46	0.697
435.66	0.697
435.87	0.697
436.07	0.696
436.28	0.693
436.48	0.689
436.69	0.689
436.89	0.689
437.09	0.683
437.30	0.682
437.50	0.682
437.71	0.693
437.91	0.692
438.11	0.693
438.32	0.698
438.52	0.698
438.73	0.697
438.93	0.695
439.13	0.695
439.34	0.698
439.54	0.696
439.75	0.696
439.95	0.686
440.15	0.690
440.36	0.689
440.56	0.686
440.77	0.687
440.97	0.687
441.17	0.686
441.38	0.687
441.58	0.684
441.79	0.684
441.99	0.683
442.19	0.681
442.40	0.679
442.60	0.678
442.81	0.676
443.01	0.676
443.21	0.676
443.42	0.676
443.62	0.675
443.82	0.674
444.03	0.676
444.23	0.675
444.44	0.676
444.64	0.675
444.84	0.677
445.05	0.676
445.25	0.674
445.45	0.675
445.66	0.677
445.86	0.675
446.06	0.677
446.27	0.675
446.47	0.678
446.68	0.676
446.88	0.675
447.08	0.674
447.29	0.675
447.49	0.675
447.69	0.675
447.90	0.673
448.10	0.677
448.30	0.674
448.51	0.676
448.71	0.673
448.91	0.675
449.12	0.674
449.32	0.676
449.52	0.675
449.73	0.679
449.93	0.678
450.14	0.679
450.34	0.678
450.54	0.680
450.75	0.677
450.95	0.677
451.15	0.676
451.36	0.679
451.56	0.676
451.76	0.674
451.97	0.670
452.17	0.671
452.37	0.669
452.58	0.666
452.78	0.665
452.98	0.668
453.19	0.667
453.39	0.667
453.59	0.666
453.79	0.666
454.00	0.667
454.20	0.667
454.40	0.667
454.61	0.669
454.81	0.669
455.01	0.668
455.22	0.669
455.42	0.670
455.62	0.668
455.83	0.668
456.03	0.671
456.23	0.672
456.44	0.673
456.64	0.672
456.84	0.671
457.04	0.672
457.25	0.671
457.45	0.667
457.65	0.667
457.86	0.668
458.06	0.667
458.26	0.663
458.47	0.662
458.67	0.663
458.87	0.663
459.07	0.662
459.28	0.663
459.48	0.665
459.68	0.666
459.89	0.665
