SpectraSuite Data File
++++++++++++++++++++++++++++++++++++
Date: Fri Jun 19 16:50:45 CEST 2015
User: introlabs
Dark Spectrum Present: Yes
Reference Spectrum Present: Yes
Number of Sampled Component Spectra: 1
Spectrometers: USB4H08886
Integration Time (usec): 745692 (USB4H08886)
Spectra Averaged: 5 (USB4H08886)
Boxcar Smoothing: 5 (USB4H08886)
Correct for Electrical Dark: Yes (USB4H08886)
Strobe/Lamp Enabled: No (USB4H08886)
Correct for Detector Non-linearity: Yes (USB4H08886)
Correct for Stray Light: Yes (USB4H08886)
Number of Pixels in Processed Spectrum: 3648
>>>>>Begin Processed Spectral Data<<<<<
178.14	-0.000
178.36	-0.000
178.57	-0.000
178.79	-0.000
179.01	-0.000
179.22	-0.000
179.44	-0.000
179.65	-0.000
179.87	-0.000
180.08	-0.000
180.30	-0.000
180.52	-0.000
180.73	-0.000
180.95	-0.000
181.16	-0.000
181.38	-0.000
181.59	-0.000
181.81	-0.000
182.03	-0.000
182.24	-0.000
182.46	-0.000
182.67	-0.000
182.89	-0.000
183.10	-0.000
183.32	-0.000
183.54	-0.000
183.75	-0.000
183.97	-0.000
184.18	-0.000
184.40	-0.000
184.61	-0.000
184.83	-0.000
185.04	-0.000
185.26	-0.000
185.48	-0.000
185.69	-0.000
185.91	-0.000
186.12	-0.000
186.34	-0.000
186.55	-0.000
186.77	-0.000
186.98	-0.000
187.20	-0.000
187.42	-0.000
187.63	-0.000
187.85	-0.000
188.06	-0.000
188.28	-0.000
188.49	-0.000
188.71	-0.000
188.92	-0.000
189.14	-0.000
189.36	-0.000
189.57	-0.000
189.79	-0.000
190.00	-0.000
190.22	-0.000
190.43	-0.000
190.65	-0.000
190.86	-0.000
191.08	-0.000
191.29	-0.000
191.51	-0.000
191.72	-0.000
191.94	-0.000
192.16	-0.000
192.37	-0.000
192.59	-0.000
192.80	-0.000
193.02	-0.000
193.23	-0.000
193.45	-0.000
193.66	-0.000
193.88	-0.000
194.09	-0.000
194.31	-0.000
194.52	-0.000
194.74	-0.000
194.95	-0.000
195.17	-0.000
195.38	-0.000
195.60	-0.000
195.81	-0.000
196.03	-0.000
196.25	-0.000
196.46	-0.000
196.68	-0.000
196.89	-0.000
197.11	-0.000
197.32	-0.000
197.54	-0.000
197.75	-0.000
197.97	-0.000
198.18	-0.000
198.40	-0.000
198.61	-0.000
198.83	-0.000
199.04	-0.000
199.26	-0.000
199.47	-0.000
199.69	-0.000
199.90	-0.000
200.12	-0.000
200.33	-0.000
200.55	-0.000
200.76	-0.000
200.98	-0.000
201.19	-0.000
201.41	-0.000
201.62	-0.000
201.84	-0.000
202.05	-0.000
202.27	-0.000
202.48	-0.000
202.70	-0.000
202.91	-0.000
203.13	-0.000
203.34	-0.000
203.56	-0.000
203.77	-0.000
203.99	-0.000
204.20	-0.000
204.42	-0.000
204.63	-0.000
204.85	-0.000
205.06	-0.000
205.28	-0.000
205.49	-0.000
205.71	-0.000
205.92	-0.000
206.14	-0.000
206.35	-0.000
206.56	-0.000
206.78	-0.000
206.99	-0.000
207.21	-0.000
207.42	-0.000
207.64	-0.000
207.85	-0.000
208.07	-0.000
208.28	-0.000
208.50	-0.000
208.71	-0.000
208.93	-0.000
209.14	-0.000
209.36	-0.000
209.57	-0.000
209.79	-0.000
210.00	-0.000
210.22	-0.000
210.43	-0.000
210.64	-0.000
210.86	-0.000
211.07	-0.000
211.29	-0.000
211.50	-0.000
211.72	-0.000
211.93	-0.000
212.15	-0.000
212.36	-0.000
212.58	-0.000
212.79	-0.000
213.01	-0.000
213.22	-0.000
213.43	-0.000
213.65	-0.000
213.86	-0.000
214.08	-0.000
214.29	-0.000
214.51	-0.000
214.72	-0.000
214.94	-0.000
215.15	-0.000
215.36	-0.000
215.58	-0.000
215.79	-0.000
216.01	-0.000
216.22	-0.000
216.44	-0.000
216.65	-0.000
216.87	-0.000
217.08	-0.000
217.29	-0.000
217.51	-0.000
217.72	-0.000
217.94	-0.000
218.15	-0.000
218.37	-0.000
218.58	-0.000
218.80	-0.000
219.01	-0.000
219.22	-0.000
219.44	-0.000
219.65	-0.000
219.87	-0.000
220.08	-0.000
220.30	-0.000
220.51	-0.000
220.72	-0.000
220.94	-0.000
221.15	-0.000
221.37	-0.000
221.58	-0.000
221.79	-0.000
222.01	-0.000
222.22	-0.000
222.44	-0.000
222.65	-0.000
222.87	-0.000
223.08	-0.000
223.29	-0.000
223.51	-0.000
223.72	-0.000
223.94	-0.000
224.15	-0.000
224.36	-0.000
224.58	-0.000
224.79	-0.000
225.01	-0.000
225.22	-0.000
225.44	-0.000
225.65	-0.000
225.86	-0.000
226.08	-0.000
226.29	-0.000
226.51	-0.000
226.72	-0.000
226.93	-0.000
227.15	-0.000
227.36	-0.000
227.58	-0.000
227.79	-0.000
228.00	-0.000
228.22	-0.000
228.43	-0.000
228.65	-0.000
228.86	-0.000
229.07	-0.000
229.29	-0.000
229.50	-0.000
229.72	-0.000
229.93	-0.000
230.14	-0.000
230.36	-0.000
230.57	-0.000
230.78	-0.000
231.00	-0.000
231.21	-0.000
231.43	-0.000
231.64	-0.000
231.85	-0.000
232.07	-0.000
232.28	-0.000
232.50	-0.000
232.71	-0.000
232.92	-0.000
233.14	-0.000
233.35	-0.000
233.56	-0.000
233.78	-0.000
233.99	-0.000
234.21	-0.000
234.42	-0.000
234.63	-0.000
234.85	-0.000
235.06	-0.000
235.27	-0.000
235.49	-0.000
235.70	-0.000
235.91	-0.000
236.13	-0.000
236.34	-0.000
236.56	-0.000
236.77	-0.000
236.98	-0.000
237.20	-0.000
237.41	-0.000
237.62	-0.000
237.84	-0.000
238.05	-0.000
238.26	-0.000
238.48	-0.000
238.69	-0.000
238.91	-0.000
239.12	-0.000
239.33	-0.000
239.55	-0.000
239.76	-0.000
239.97	-0.000
240.19	-0.000
240.40	-0.000
240.61	-0.000
240.83	-0.000
241.04	-0.000
241.25	-0.000
241.47	-0.000
241.68	-0.000
241.89	-0.000
242.11	-0.000
242.32	-0.000
242.53	-0.000
242.75	-0.000
242.96	-0.000
243.17	-0.000
243.39	-0.000
243.60	-0.000
243.81	-0.000
244.03	-0.000
244.24	-0.000
244.45	-0.000
244.67	-0.000
244.88	-0.000
245.09	-0.000
245.31	-0.000
245.52	-0.000
245.73	-0.000
245.95	-0.000
246.16	-0.000
246.37	-0.000
246.59	-0.000
246.80	-0.000
247.01	-0.000
247.23	-0.000
247.44	-0.000
247.65	-0.000
247.87	-0.000
248.08	-0.000
248.29	-0.000
248.51	-0.000
248.72	-0.000
248.93	-0.000
249.15	-0.000
249.36	-0.000
249.57	-0.000
249.78	-0.000
250.00	-0.000
250.21	-0.000
250.42	-0.000
250.64	-0.000
250.85	-0.000
251.06	-0.000
251.28	-0.000
251.49	-0.000
251.70	-0.000
251.92	-0.000
252.13	-0.000
252.34	-0.000
252.55	-0.000
252.77	-0.000
252.98	-0.000
253.19	-0.000
253.41	-0.000
253.62	-0.000
253.83	-0.000
254.05	-0.000
254.26	-0.000
254.47	-0.000
254.68	-0.000
254.90	-0.000
255.11	-0.000
255.32	-0.000
255.54	-0.000
255.75	-0.000
255.96	-0.000
256.17	-0.000
256.39	-0.000
256.60	-0.000
256.81	-0.000
257.03	-0.000
257.24	-0.000
257.45	-0.000
257.66	-0.000
257.88	-0.000
258.09	-0.000
258.30	-0.000
258.51	-0.000
258.73	-0.000
258.94	-0.000
259.15	-0.000
259.37	-0.000
259.58	-0.000
259.79	-0.000
260.00	-0.000
260.22	-0.000
260.43	-0.000
260.64	-0.000
260.85	-0.000
261.07	-0.000
261.28	-0.000
261.49	-0.000
261.71	-0.000
261.92	-0.000
262.13	-0.000
262.34	-0.000
262.56	-0.000
262.77	-0.000
262.98	-0.000
263.19	-0.000
263.41	-0.000
263.62	-0.000
263.83	-0.000
264.04	-0.000
264.26	-0.000
264.47	-0.000
264.68	-0.000
264.89	-0.000
265.11	-0.000
265.32	-0.000
265.53	-0.000
265.74	-0.000
265.96	-0.000
266.17	-0.000
266.38	-0.000
266.59	-0.000
266.81	-0.000
267.02	-0.000
267.23	-0.000
267.44	-0.000
267.65	-0.000
267.87	-0.000
268.08	-0.000
268.29	-0.000
268.50	-0.000
268.72	-0.000
268.93	-0.000
269.14	-0.000
269.35	-0.000
269.57	-0.000
269.78	-0.000
269.99	-0.000
270.20	-0.000
270.41	-0.000
270.63	-0.000
270.84	-0.000
271.05	-0.000
271.26	-0.000
271.48	-0.000
271.69	-0.000
271.90	-0.000
272.11	-0.000
272.32	-0.000
272.54	-0.000
272.75	-0.000
272.96	-0.000
273.17	-0.000
273.39	-0.000
273.60	-0.000
273.81	-0.000
274.02	-0.000
274.23	-0.000
274.45	-0.000
274.66	-0.000
274.87	-0.000
275.08	-0.000
275.29	-0.000
275.51	-0.000
275.72	-0.000
275.93	-0.000
276.14	-0.000
276.35	-0.000
276.57	-0.000
276.78	-0.000
276.99	-0.000
277.20	-0.000
277.41	-0.000
277.63	-0.000
277.84	-0.000
278.05	-0.000
278.26	-0.000
278.47	-0.000
278.69	-0.000
278.90	-0.000
279.11	-0.000
279.32	-0.000
279.53	-0.000
279.74	-0.000
279.96	-0.000
280.17	-0.000
280.38	-0.000
280.59	-0.000
280.80	-0.000
281.02	-0.000
281.23	-0.000
281.44	-0.000
281.65	-0.000
281.86	-0.000
282.07	-0.000
282.29	-0.000
282.50	-0.000
282.71	-0.000
282.92	-0.000
283.13	-0.000
283.35	-0.000
283.56	-0.000
283.77	-0.000
283.98	-0.000
284.19	-0.000
284.40	-0.000
284.62	-0.000
284.83	-0.000
285.04	-0.000
285.25	-0.000
285.46	-0.000
285.67	-0.000
285.88	-0.000
286.10	-0.000
286.31	-0.000
286.52	-0.000
286.73	-0.000
286.94	-0.000
287.15	-0.000
287.37	-0.000
287.58	-0.000
287.79	-0.000
288.00	-0.000
288.21	-0.000
288.42	-0.000
288.63	-0.000
288.85	-0.000
289.06	-0.000
289.27	-0.000
289.48	-0.000
289.69	-0.000
289.90	-0.000
290.11	-0.000
290.33	-0.000
290.54	-0.000
290.75	-0.000
290.96	-0.000
291.17	-0.000
291.38	-0.000
291.59	-0.000
291.81	-0.000
292.02	-0.000
292.23	-0.000
292.44	-0.000
292.65	-0.000
292.86	-0.000
293.07	-0.000
293.28	-0.000
293.50	-0.000
293.71	-0.000
293.92	-0.000
294.13	-0.000
294.34	-0.000
294.55	-0.000
294.76	-0.000
294.97	-0.000
295.19	-0.000
295.40	-0.000
295.61	-0.000
295.82	-0.000
296.03	-0.000
296.24	-0.000
296.45	-0.000
296.66	-0.000
296.87	-0.000
297.09	-0.000
297.30	-0.000
297.51	-0.000
297.72	-0.000
297.93	-0.000
298.14	-0.000
298.35	-0.000
298.56	-0.000
298.77	-0.000
298.99	-0.000
299.20	-0.000
299.41	-0.000
299.62	-0.000
299.83	-0.000
300.04	-0.000
300.25	-0.000
300.46	-0.000
300.67	-0.000
300.88	-0.000
301.10	-0.000
301.31	-0.000
301.52	-0.000
301.73	-0.000
301.94	-0.000
302.15	-0.000
302.36	-0.000
302.57	-0.000
302.78	-0.000
302.99	-0.000
303.20	-0.000
303.41	-0.000
303.63	-0.000
303.84	-0.000
304.05	-0.000
304.26	-0.000
304.47	-0.000
304.68	-0.000
304.89	-0.000
305.10	-0.000
305.31	-0.000
305.52	-0.000
305.73	-0.000
305.94	-0.000
306.15	-0.000
306.37	-0.000
306.58	-0.000
306.79	-0.000
307.00	-0.000
307.21	-0.000
307.42	-0.000
307.63	-0.000
307.84	-0.000
308.05	-0.000
308.26	-0.000
308.47	-0.000
308.68	-0.000
308.89	-0.000
309.10	-0.000
309.31	-0.000
309.52	-0.000
309.73	-0.000
309.95	-0.000
310.16	-0.000
310.37	-0.000
310.58	-0.000
310.79	-0.000
311.00	-0.000
311.21	-0.000
311.42	-0.000
311.63	-0.000
311.84	-0.000
312.05	-0.000
312.26	-0.000
312.47	-0.000
312.68	-0.000
312.89	-0.000
313.10	-0.000
313.31	-0.000
313.52	-0.000
313.73	-0.000
313.94	-0.000
314.15	-0.000
314.36	-0.000
314.57	-0.000
314.78	-0.000
314.99	-0.000
315.21	-0.000
315.42	-0.000
315.63	-0.000
315.84	-0.000
316.05	-0.000
316.26	-0.000
316.47	-0.000
316.68	-0.000
316.89	-0.000
317.10	-0.000
317.31	-0.000
317.52	-0.000
317.73	-0.000
317.94	-0.000
318.15	-0.000
318.36	-0.000
318.57	-0.000
318.78	-0.000
318.99	-0.000
319.20	-0.000
319.41	-0.000
319.62	-0.000
319.83	-0.000
320.04	-0.000
320.25	-0.000
320.46	-0.000
320.67	-0.000
320.88	-0.000
321.09	-0.000
321.30	-0.000
321.51	-0.000
321.72	-0.000
321.93	-0.000
322.14	-0.000
322.35	-0.000
322.56	-0.000
322.77	-0.000
322.98	-0.000
323.19	-0.000
323.40	-0.000
323.61	-0.000
323.82	-0.000
324.03	-0.000
324.24	-0.000
324.45	-0.000
324.66	-0.000
324.87	-0.000
325.08	-0.000
325.29	-0.000
325.50	-0.000
325.71	-0.000
325.92	-0.000
326.13	-0.000
326.34	-0.000
326.55	-0.000
326.76	-0.000
326.97	-0.000
327.18	-0.000
327.39	-0.000
327.60	-0.000
327.80	-0.000
328.01	-0.000
328.22	-0.000
328.43	-0.000
328.64	-0.000
328.85	-0.000
329.06	-0.000
329.27	-0.000
329.48	-0.000
329.69	-0.000
329.90	-0.000
330.11	-0.000
330.32	-0.000
330.53	-0.000
330.74	-0.000
330.95	-0.000
331.16	3.156
331.37	-0.000
331.58	-0.000
331.79	-0.000
332.00	-0.000
332.21	2.949
332.42	3.072
332.63	2.590
332.83	2.584
333.04	2.874
333.25	-0.000
333.46	-0.000
333.67	2.775
333.88	2.950
334.09	-0.000
334.30	-0.000
334.51	3.169
334.72	2.924
334.93	2.971
335.14	2.799
335.35	2.501
335.56	2.375
335.77	2.580
335.98	2.639
336.18	2.503
336.39	2.286
336.60	2.331
336.81	2.324
337.02	2.350
337.23	2.559
337.44	2.686
337.65	2.997
337.86	2.537
338.07	2.386
338.28	2.441
338.49	2.440
338.70	2.302
338.91	2.540
339.11	2.846
339.32	2.664
339.53	2.347
339.74	2.323
339.95	2.208
340.16	2.223
340.37	2.147
340.58	2.130
340.79	2.136
341.00	2.167
341.21	2.040
341.41	2.072
341.62	2.088
341.83	2.098
342.04	2.050
342.25	2.287
342.46	2.326
342.67	2.326
342.88	2.236
343.09	2.288
343.30	2.462
343.50	2.701
343.71	2.370
343.92	2.342
344.13	2.464
344.34	2.458
344.55	2.096
344.76	2.111
344.97	2.172
345.18	2.183
345.38	2.162
345.59	2.099
345.80	2.064
346.01	2.070
346.22	2.056
346.43	1.989
346.64	2.097
346.85	2.122
347.06	2.046
347.26	2.042
347.47	2.084
347.68	2.036
347.89	2.005
348.10	1.957
348.31	2.021
348.52	2.012
348.73	2.003
348.93	1.984
349.14	1.994
349.35	2.001
349.56	1.957
349.77	1.917
349.98	1.982
350.19	1.956
350.39	1.924
350.60	1.888
350.81	2.093
351.02	2.088
351.23	2.044
351.44	2.085
351.65	2.103
351.86	2.095
352.06	2.082
352.27	2.082
352.48	2.097
352.69	2.104
352.90	2.039
353.11	1.877
353.31	1.971
353.52	1.939
353.73	1.877
353.94	1.920
354.15	1.968
354.36	1.974
354.57	1.895
354.77	1.922
354.98	1.913
355.19	1.922
355.40	1.926
355.61	2.011
355.82	2.042
356.02	2.046
356.23	1.962
356.44	1.985
356.65	2.022
356.86	2.030
357.07	1.972
357.27	2.009
357.48	2.027
357.69	1.972
357.90	1.803
358.11	1.780
358.32	1.802
358.52	1.826
358.73	1.759
358.94	1.779
359.15	1.824
359.36	1.825
359.56	1.798
359.77	1.781
359.98	1.846
360.19	1.851
360.40	1.842
360.61	1.867
360.81	1.846
361.02	1.850
361.23	1.786
361.44	1.768
361.65	1.775
361.85	1.776
362.06	1.770
362.27	1.792
362.48	1.789
362.69	1.806
362.89	1.757
363.10	1.781
363.31	1.825
363.52	1.866
363.73	1.821
363.93	1.829
364.14	1.833
364.35	1.848
364.56	1.767
364.77	1.782
364.97	1.790
365.18	1.794
365.39	1.761
365.60	1.732
365.81	1.735
366.01	1.744
366.22	1.721
366.43	1.723
366.64	1.728
366.84	1.780
367.05	1.766
367.26	1.769
367.47	1.779
367.68	1.777
367.88	1.766
368.09	1.744
368.30	1.759
368.51	1.764
368.71	1.762
368.92	1.813
369.13	1.789
369.34	1.786
369.55	1.790
369.75	1.791
369.96	1.854
370.17	1.857
370.38	1.849
370.58	1.844
370.79	1.888
371.00	1.879
371.21	1.794
371.41	1.848
371.62	1.878
371.83	1.838
372.04	1.823
372.24	1.762
372.45	1.764
372.66	1.763
372.87	1.755
373.07	1.729
373.28	1.733
373.49	1.771
373.70	1.698
373.90	1.694
374.11	1.763
374.32	1.763
374.53	1.767
374.73	1.782
374.94	1.794
375.15	1.791
375.36	1.774
375.56	1.873
375.77	1.855
375.98	1.850
376.19	1.830
376.39	1.769
376.60	1.792
376.81	1.792
377.02	1.776
377.22	1.775
377.43	1.769
377.64	1.773
377.84	1.691
378.05	1.733
378.26	1.785
378.47	1.781
378.67	1.759
378.88	1.747
379.09	1.743
379.30	1.739
379.50	1.726
379.71	1.746
379.92	1.761
380.12	1.769
380.33	1.711
380.54	1.683
380.75	1.739
380.95	1.741
381.16	1.734
381.37	1.741
381.57	1.757
381.78	1.762
381.99	1.765
382.20	1.763
382.40	1.787
382.61	1.786
382.82	1.768
383.02	1.721
383.23	1.746
383.44	1.747
383.64	1.741
383.85	1.761
384.06	1.783
384.27	1.761
384.47	1.758
384.68	1.752
384.89	1.793
385.09	1.798
385.30	1.789
385.51	1.782
385.71	1.802
385.92	1.803
386.13	1.797
386.33	1.828
386.54	1.829
386.75	1.815
386.95	1.792
387.16	1.754
387.37	1.766
387.58	1.764
387.78	1.751
387.99	1.736
388.20	1.742
388.40	1.715
388.61	1.677
388.82	1.711
389.02	1.721
389.23	1.719
389.44	1.714
389.64	1.717
389.85	1.824
390.06	1.818
390.26	1.824
390.47	1.821
390.68	1.844
390.88	1.833
391.09	1.786
391.30	1.788
391.50	1.784
391.71	1.785
391.92	1.760
392.12	1.682
392.33	1.681
392.53	1.682
392.74	1.694
392.95	1.681
393.15	1.696
393.36	1.710
393.57	1.698
393.77	1.716
393.98	1.725
394.19	1.729
394.39	1.733
394.60	1.745
394.81	1.752
395.01	1.730
395.22	1.724
395.43	1.727
395.63	1.763
395.84	1.770
396.04	1.753
396.25	1.762
396.46	1.767
396.66	1.747
396.87	1.726
397.08	1.703
397.28	1.717
397.49	1.726
397.69	1.706
397.90	1.663
398.11	1.665
398.31	1.663
398.52	1.639
398.73	1.657
398.93	1.645
399.14	1.640
399.34	1.636
399.55	1.643
399.76	1.643
399.96	1.646
400.17	1.642
400.37	1.635
400.58	1.686
400.79	1.703
400.99	1.678
401.20	1.725
401.41	1.739
401.61	1.740
401.82	1.801
402.02	1.795
402.23	1.796
402.44	1.793
402.64	1.794
402.85	1.732
403.05	1.716
403.26	1.706
403.47	1.660
403.67	1.654
403.88	1.655
404.08	1.604
404.29	1.596
404.50	1.598
404.70	1.595
404.91	1.591
405.11	1.578
405.32	1.581
405.52	1.581
405.73	1.581
405.94	1.573
406.14	1.592
406.35	1.602
406.55	1.599
406.76	1.586
406.97	1.591
407.17	1.605
407.38	1.602
407.58	1.595
407.79	1.609
407.99	1.619
408.20	1.623
408.41	1.596
408.61	1.588
408.82	1.588
409.02	1.587
409.23	1.580
409.43	1.568
409.64	1.569
409.84	1.568
410.05	1.549
410.26	1.540
410.46	1.536
410.67	1.537
410.87	1.546
411.08	1.558
411.28	1.560
411.49	1.569
411.69	1.558
411.90	1.572
412.11	1.577
412.31	1.583
412.52	1.576
412.72	1.582
412.93	1.580
413.13	1.578
413.34	1.559
413.54	1.573
413.75	1.582
413.95	1.583
414.16	1.564
414.37	1.580
414.57	1.579
414.78	1.595
414.98	1.588
415.19	1.596
415.39	1.568
415.60	1.583
415.80	1.578
416.01	1.561
416.21	1.567
416.42	1.568
416.62	1.540
416.83	1.539
417.03	1.531
417.24	1.529
417.44	1.516
417.65	1.513
417.86	1.508
418.06	1.495
418.27	1.486
418.47	1.495
418.68	1.494
418.88	1.494
419.09	1.490
419.29	1.495
419.50	1.496
419.70	1.496
419.91	1.493
420.11	1.484
420.32	1.493
420.52	1.493
420.73	1.490
420.93	1.494
421.14	1.507
421.34	1.501
421.55	1.487
421.75	1.486
421.96	1.489
422.16	1.491
422.37	1.487
422.57	1.474
422.78	1.479
422.98	1.465
423.19	1.457
423.39	1.445
423.60	1.462
423.80	1.467
424.01	1.462
424.21	1.473
424.42	1.474
424.62	1.473
424.83	1.471
425.03	1.470
425.23	1.475
425.44	1.474
425.64	1.479
425.85	1.469
426.05	1.469
426.26	1.471
426.46	1.454
426.67	1.451
426.87	1.473
427.08	1.474
427.28	1.466
427.49	1.471
427.69	1.472
427.90	1.465
428.10	1.455
428.31	1.456
428.51	1.464
428.71	1.460
428.92	1.467
429.12	1.452
429.33	1.453
429.53	1.476
429.74	1.506
429.94	1.510
430.15	1.507
430.35	1.505
430.56	1.492
430.76	1.486
430.96	1.491
431.17	1.477
431.37	1.467
431.58	1.460
431.78	1.441
431.99	1.404
432.19	1.416
432.40	1.425
432.60	1.427
432.80	1.438
433.01	1.432
433.21	1.430
433.42	1.435
433.62	1.436
433.83	1.436
434.03	1.448
434.23	1.459
434.44	1.449
434.64	1.438
434.85	1.464
435.05	1.470
435.26	1.471
435.46	1.468
435.66	1.469
435.87	1.467
436.07	1.469
436.28	1.450
436.48	1.438
436.69	1.435
436.89	1.438
437.09	1.407
437.30	1.401
437.50	1.399
437.71	1.464
437.91	1.459
438.11	1.464
438.32	1.482
438.52	1.482
438.73	1.481
438.93	1.472
439.13	1.470
439.34	1.491
439.54	1.479
439.75	1.482
439.95	1.423
440.15	1.449
440.36	1.445
440.56	1.432
440.77	1.437
440.97	1.437
441.17	1.431
441.38	1.437
441.58	1.420
441.79	1.419
441.99	1.415
442.19	1.404
442.40	1.388
442.60	1.386
442.81	1.379
443.01	1.377
443.21	1.376
443.42	1.377
443.62	1.372
443.82	1.371
444.03	1.378
444.23	1.378
444.44	1.383
444.64	1.381
444.84	1.388
445.05	1.388
445.25	1.381
445.45	1.382
445.66	1.389
445.86	1.386
446.06	1.396
446.27	1.390
446.47	1.402
446.68	1.394
446.88	1.389
447.08	1.384
447.29	1.388
447.49	1.389
447.69	1.388
447.90	1.383
448.10	1.397
448.30	1.383
448.51	1.393
448.71	1.383
448.91	1.390
449.12	1.385
449.32	1.395
449.52	1.390
449.73	1.404
449.93	1.400
450.14	1.406
450.34	1.401
450.54	1.409
450.75	1.396
450.95	1.393
451.15	1.392
451.36	1.403
451.56	1.387
451.76	1.387
451.97	1.376
452.17	1.375
452.37	1.367
452.58	1.357
452.78	1.356
452.98	1.366
453.19	1.367
453.39	1.373
453.59	1.365
453.79	1.368
454.00	1.369
454.20	1.366
454.40	1.371
454.61	1.379
454.81	1.382
455.01	1.378
455.22	1.381
455.42	1.384
455.62	1.373
455.83	1.370
456.03	1.383
456.23	1.383
456.44	1.385
456.64	1.380
456.84	1.378
457.04	1.378
457.25	1.377
