SpectraSuite Data File
++++++++++++++++++++++++++++++++++++
Date: Fri Jun 19 17:00:17 CEST 2015
User: introlabs
Dark Spectrum Present: Yes
Reference Spectrum Present: Yes
Number of Sampled Component Spectra: 1
Spectrometers: USB4H08886
Integration Time (usec): 745692 (USB4H08886)
Spectra Averaged: 5 (USB4H08886)
Boxcar Smoothing: 5 (USB4H08886)
Correct for Electrical Dark: Yes (USB4H08886)
Strobe/Lamp Enabled: No (USB4H08886)
Correct for Detector Non-linearity: Yes (USB4H08886)
Correct for Stray Light: Yes (USB4H08886)
Number of Pixels in Processed Spectrum: 3648
>>>>>Begin Processed Spectral Data<<<<<
178.14	-0.000
178.36	-0.000
178.57	-0.000
178.79	-0.000
179.01	-0.000
179.22	-0.000
179.44	-0.000
179.65	-0.000
179.87	-0.000
180.08	-0.000
180.30	-0.000
180.52	-0.000
180.73	-0.000
180.95	-0.000
181.16	-0.000
181.38	-0.000
181.59	-0.000
181.81	-0.000
182.03	-0.000
182.24	-0.000
182.46	-0.000
182.67	-0.000
182.89	-0.000
183.10	-0.000
183.32	-0.000
183.54	-0.000
183.75	-0.000
183.97	-0.000
184.18	-0.000
184.40	-0.000
184.61	-0.000
184.83	-0.000
185.04	-0.000
185.26	-0.000
185.48	-0.000
185.69	-0.000
185.91	-0.000
186.12	-0.000
186.34	-0.000
186.55	-0.000
186.77	-0.000
186.98	-0.000
187.20	-0.000
187.42	-0.000
187.63	-0.000
187.85	-0.000
188.06	-0.000
188.28	-0.000
188.49	-0.000
188.71	-0.000
188.92	-0.000
189.14	-0.000
189.36	-0.000
189.57	-0.000
189.79	-0.000
190.00	-0.000
190.22	-0.000
190.43	-0.000
190.65	-0.000
190.86	-0.000
191.08	-0.000
191.29	-0.000
191.51	-0.000
191.72	-0.000
191.94	-0.000
192.16	-0.000
192.37	-0.000
192.59	-0.000
192.80	-0.000
193.02	-0.000
193.23	-0.000
193.45	-0.000
193.66	-0.000
193.88	-0.000
194.09	-0.000
194.31	-0.000
194.52	-0.000
194.74	-0.000
194.95	-0.000
195.17	-0.000
195.38	-0.000
195.60	-0.000
195.81	-0.000
196.03	-0.000
196.25	-0.000
196.46	-0.000
196.68	-0.000
196.89	-0.000
197.11	-0.000
197.32	-0.000
197.54	-0.000
197.75	-0.000
197.97	-0.000
198.18	-0.000
198.40	-0.000
198.61	-0.000
198.83	-0.000
199.04	-0.000
199.26	-0.000
199.47	-0.000
199.69	-0.000
199.90	-0.000
200.12	-0.000
200.33	-0.000
200.55	-0.000
200.76	-0.000
200.98	-0.000
201.19	-0.000
201.41	-0.000
201.62	-0.000
201.84	-0.000
202.05	-0.000
202.27	-0.000
202.48	-0.000
202.70	-0.000
202.91	-0.000
203.13	-0.000
203.34	-0.000
203.56	-0.000
203.77	-0.000
203.99	-0.000
204.20	-0.000
204.42	-0.000
204.63	-0.000
204.85	-0.000
205.06	-0.000
205.28	-0.000
205.49	-0.000
205.71	-0.000
205.92	-0.000
206.14	-0.000
206.35	-0.000
206.56	-0.000
206.78	-0.000
206.99	-0.000
207.21	-0.000
207.42	-0.000
207.64	-0.000
207.85	-0.000
208.07	-0.000
208.28	-0.000
208.50	-0.000
208.71	-0.000
208.93	-0.000
209.14	-0.000
209.36	-0.000
209.57	-0.000
209.79	-0.000
210.00	-0.000
210.22	-0.000
210.43	-0.000
210.64	-0.000
210.86	-0.000
211.07	-0.000
211.29	-0.000
211.50	-0.000
211.72	-0.000
211.93	-0.000
212.15	-0.000
212.36	-0.000
212.58	-0.000
212.79	-0.000
213.01	-0.000
213.22	-0.000
213.43	-0.000
213.65	-0.000
213.86	-0.000
214.08	-0.000
214.29	-0.000
214.51	-0.000
214.72	-0.000
214.94	-0.000
215.15	-0.000
215.36	-0.000
215.58	-0.000
215.79	-0.000
216.01	-0.000
216.22	-0.000
216.44	-0.000
216.65	-0.000
216.87	-0.000
217.08	-0.000
217.29	-0.000
217.51	-0.000
217.72	-0.000
217.94	-0.000
218.15	-0.000
218.37	-0.000
218.58	-0.000
218.80	-0.000
219.01	-0.000
219.22	-0.000
219.44	-0.000
219.65	-0.000
219.87	-0.000
220.08	-0.000
220.30	-0.000
220.51	-0.000
220.72	-0.000
220.94	-0.000
221.15	-0.000
221.37	-0.000
221.58	-0.000
221.79	-0.000
222.01	-0.000
222.22	-0.000
222.44	-0.000
222.65	-0.000
222.87	-0.000
223.08	-0.000
223.29	-0.000
223.51	-0.000
223.72	-0.000
223.94	-0.000
224.15	-0.000
224.36	-0.000
224.58	-0.000
224.79	-0.000
225.01	-0.000
225.22	-0.000
225.44	-0.000
225.65	-0.000
225.86	-0.000
226.08	-0.000
226.29	-0.000
226.51	-0.000
226.72	-0.000
226.93	-0.000
227.15	-0.000
227.36	-0.000
227.58	-0.000
227.79	-0.000
228.00	-0.000
228.22	-0.000
228.43	-0.000
228.65	-0.000
228.86	-0.000
229.07	-0.000
229.29	-0.000
229.50	-0.000
229.72	-0.000
229.93	-0.000
230.14	-0.000
230.36	-0.000
230.57	-0.000
230.78	-0.000
231.00	-0.000
231.21	-0.000
231.43	-0.000
231.64	-0.000
231.85	-0.000
232.07	-0.000
232.28	-0.000
232.50	-0.000
232.71	-0.000
232.92	-0.000
233.14	-0.000
233.35	-0.000
233.56	-0.000
233.78	-0.000
233.99	-0.000
234.21	-0.000
234.42	-0.000
234.63	-0.000
234.85	-0.000
235.06	-0.000
235.27	-0.000
235.49	-0.000
235.70	-0.000
235.91	-0.000
236.13	-0.000
236.34	-0.000
236.56	-0.000
236.77	-0.000
236.98	-0.000
237.20	-0.000
237.41	-0.000
237.62	-0.000
237.84	-0.000
238.05	-0.000
238.26	-0.000
238.48	-0.000
238.69	-0.000
238.91	-0.000
239.12	-0.000
239.33	-0.000
239.55	-0.000
239.76	-0.000
239.97	-0.000
240.19	-0.000
240.40	-0.000
240.61	-0.000
240.83	-0.000
241.04	-0.000
241.25	-0.000
241.47	-0.000
241.68	-0.000
241.89	-0.000
242.11	-0.000
242.32	-0.000
242.53	-0.000
242.75	-0.000
242.96	-0.000
243.17	-0.000
243.39	-0.000
243.60	-0.000
243.81	-0.000
244.03	-0.000
244.24	-0.000
244.45	-0.000
244.67	-0.000
244.88	-0.000
245.09	-0.000
245.31	-0.000
245.52	-0.000
245.73	-0.000
245.95	-0.000
246.16	-0.000
246.37	-0.000
246.59	-0.000
246.80	-0.000
247.01	-0.000
247.23	-0.000
247.44	-0.000
247.65	-0.000
247.87	-0.000
248.08	-0.000
248.29	-0.000
248.51	-0.000
248.72	-0.000
248.93	-0.000
249.15	-0.000
249.36	-0.000
249.57	-0.000
249.78	-0.000
250.00	-0.000
250.21	-0.000
250.42	-0.000
250.64	-0.000
250.85	-0.000
251.06	-0.000
251.28	-0.000
251.49	-0.000
251.70	-0.000
251.92	-0.000
252.13	-0.000
252.34	-0.000
252.55	-0.000
252.77	-0.000
252.98	-0.000
253.19	-0.000
253.41	-0.000
253.62	-0.000
253.83	-0.000
254.05	-0.000
254.26	-0.000
254.47	-0.000
254.68	-0.000
254.90	-0.000
255.11	-0.000
255.32	-0.000
255.54	-0.000
255.75	-0.000
255.96	-0.000
256.17	-0.000
256.39	-0.000
256.60	-0.000
256.81	-0.000
257.03	-0.000
257.24	-0.000
257.45	-0.000
257.66	-0.000
257.88	-0.000
258.09	-0.000
258.30	-0.000
258.51	-0.000
258.73	-0.000
258.94	-0.000
259.15	-0.000
259.37	-0.000
259.58	-0.000
259.79	-0.000
260.00	-0.000
260.22	-0.000
260.43	-0.000
260.64	-0.000
260.85	-0.000
261.07	-0.000
261.28	-0.000
261.49	-0.000
261.71	-0.000
261.92	-0.000
262.13	-0.000
262.34	-0.000
262.56	-0.000
262.77	-0.000
262.98	-0.000
263.19	-0.000
263.41	-0.000
263.62	-0.000
263.83	-0.000
264.04	-0.000
264.26	-0.000
264.47	-0.000
264.68	-0.000
264.89	-0.000
265.11	-0.000
265.32	-0.000
265.53	-0.000
265.74	-0.000
265.96	-0.000
266.17	-0.000
266.38	-0.000
266.59	-0.000
266.81	-0.000
267.02	-0.000
267.23	-0.000
267.44	-0.000
267.65	-0.000
267.87	-0.000
268.08	-0.000
268.29	-0.000
268.50	-0.000
268.72	-0.000
268.93	-0.000
269.14	-0.000
269.35	-0.000
269.57	-0.000
269.78	-0.000
269.99	-0.000
270.20	-0.000
270.41	-0.000
270.63	-0.000
270.84	-0.000
271.05	-0.000
271.26	-0.000
271.48	-0.000
271.69	-0.000
271.90	-0.000
272.11	-0.000
272.32	-0.000
272.54	-0.000
272.75	-0.000
272.96	-0.000
273.17	-0.000
273.39	-0.000
273.60	-0.000
273.81	-0.000
274.02	-0.000
274.23	-0.000
274.45	-0.000
274.66	-0.000
274.87	-0.000
275.08	-0.000
275.29	-0.000
275.51	-0.000
275.72	-0.000
275.93	-0.000
276.14	-0.000
276.35	-0.000
276.57	-0.000
276.78	-0.000
276.99	-0.000
277.20	-0.000
277.41	-0.000
277.63	-0.000
277.84	-0.000
278.05	-0.000
278.26	-0.000
278.47	-0.000
278.69	-0.000
278.90	-0.000
279.11	-0.000
279.32	-0.000
279.53	-0.000
279.74	-0.000
279.96	-0.000
280.17	-0.000
280.38	-0.000
280.59	-0.000
280.80	-0.000
281.02	-0.000
281.23	-0.000
281.44	-0.000
281.65	-0.000
281.86	-0.000
282.07	-0.000
282.29	-0.000
282.50	-0.000
282.71	-0.000
282.92	-0.000
283.13	-0.000
283.35	-0.000
283.56	-0.000
283.77	-0.000
283.98	-0.000
284.19	-0.000
284.40	-0.000
284.62	-0.000
284.83	-0.000
285.04	-0.000
285.25	-0.000
285.46	-0.000
285.67	-0.000
285.88	-0.000
286.10	-0.000
286.31	-0.000
286.52	-0.000
286.73	-0.000
286.94	-0.000
287.15	-0.000
287.37	-0.000
287.58	-0.000
287.79	-0.000
288.00	-0.000
288.21	-0.000
288.42	-0.000
288.63	-0.000
288.85	-0.000
289.06	-0.000
289.27	-0.000
289.48	-0.000
289.69	-0.000
289.90	-0.000
290.11	-0.000
290.33	-0.000
290.54	-0.000
290.75	-0.000
290.96	-0.000
291.17	-0.000
291.38	-0.000
291.59	-0.000
291.81	-0.000
292.02	-0.000
292.23	-0.000
292.44	-0.000
292.65	-0.000
292.86	-0.000
293.07	-0.000
293.28	-0.000
293.50	-0.000
293.71	-0.000
293.92	-0.000
294.13	-0.000
294.34	-0.000
294.55	-0.000
294.76	-0.000
294.97	-0.000
295.19	-0.000
295.40	-0.000
295.61	-0.000
295.82	-0.000
296.03	-0.000
296.24	-0.000
296.45	-0.000
296.66	-0.000
296.87	-0.000
297.09	-0.000
297.30	-0.000
297.51	-0.000
297.72	-0.000
297.93	-0.000
298.14	-0.000
298.35	-0.000
298.56	-0.000
298.77	-0.000
298.99	-0.000
299.20	-0.000
299.41	-0.000
299.62	-0.000
299.83	-0.000
300.04	-0.000
300.25	-0.000
300.46	-0.000
300.67	-0.000
300.88	-0.000
301.10	-0.000
301.31	-0.000
301.52	-0.000
301.73	-0.000
301.94	-0.000
302.15	-0.000
302.36	-0.000
302.57	-0.000
302.78	-0.000
302.99	-0.000
303.20	-0.000
303.41	-0.000
303.63	-0.000
303.84	-0.000
304.05	-0.000
304.26	-0.000
304.47	-0.000
304.68	-0.000
304.89	-0.000
305.10	-0.000
305.31	-0.000
305.52	-0.000
305.73	-0.000
305.94	-0.000
306.15	-0.000
306.37	-0.000
306.58	-0.000
306.79	-0.000
307.00	-0.000
307.21	-0.000
307.42	-0.000
307.63	-0.000
307.84	-0.000
308.05	-0.000
308.26	-0.000
308.47	-0.000
308.68	-0.000
308.89	-0.000
309.10	-0.000
309.31	-0.000
309.52	-0.000
309.73	-0.000
309.95	-0.000
310.16	-0.000
310.37	-0.000
310.58	-0.000
310.79	-0.000
311.00	-0.000
311.21	-0.000
311.42	-0.000
311.63	-0.000
311.84	-0.000
312.05	-0.000
312.26	-0.000
312.47	-0.000
312.68	-0.000
312.89	-0.000
313.10	-0.000
313.31	-0.000
313.52	-0.000
313.73	-0.000
313.94	-0.000
314.15	-0.000
314.36	-0.000
314.57	-0.000
314.78	-0.000
314.99	-0.000
315.21	-0.000
315.42	-0.000
315.63	-0.000
315.84	-0.000
316.05	-0.000
316.26	-0.000
316.47	-0.000
316.68	-0.000
316.89	-0.000
317.10	-0.000
317.31	-0.000
317.52	-0.000
317.73	-0.000
317.94	-0.000
318.15	-0.000
318.36	-0.000
318.57	-0.000
318.78	-0.000
318.99	-0.000
319.20	-0.000
319.41	-0.000
319.62	-0.000
319.83	-0.000
320.04	-0.000
320.25	-0.000
320.46	-0.000
320.67	-0.000
320.88	-0.000
321.09	-0.000
321.30	-0.000
321.51	-0.000
321.72	-0.000
321.93	-0.000
322.14	-0.000
322.35	-0.000
322.56	-0.000
322.77	-0.000
322.98	-0.000
323.19	-0.000
323.40	-0.000
323.61	-0.000
323.82	-0.000
324.03	-0.000
324.24	-0.000
324.45	-0.000
324.66	-0.000
324.87	-0.000
325.08	-0.000
325.29	-0.000
325.50	-0.000
325.71	-0.000
325.92	-0.000
326.13	-0.000
326.34	-0.000
326.55	-0.000
326.76	-0.000
326.97	-0.000
327.18	-0.000
327.39	-0.000
327.60	-0.000
327.80	-0.000
328.01	-0.000
328.22	-0.000
328.43	-0.000
328.64	-0.000
328.85	-0.000
329.06	-0.000
329.27	-0.000
329.48	-0.000
329.69	-0.000
329.90	-0.000
330.11	-0.000
330.32	-0.000
330.53	-0.000
330.74	-0.000
330.95	-0.000
331.16	-0.000
331.37	-0.000
331.58	-0.000
331.79	-0.000
332.00	-0.000
332.21	-0.000
332.42	-0.000
332.63	-0.000
332.83	-0.000
333.04	-0.000
333.25	-0.000
333.46	-0.000
333.67	-0.000
333.88	-0.000
334.09	-0.000
334.30	-0.000
334.51	-0.000
334.72	-0.000
334.93	-0.000
335.14	-0.000
335.35	-0.000
335.56	-0.000
335.77	-0.000
335.98	-0.000
336.18	-0.000
336.39	-0.000
336.60	-0.000
336.81	-0.000
337.02	-0.000
337.23	-0.000
337.44	-0.000
337.65	-0.000
337.86	-0.000
338.07	-0.000
338.28	-0.000
338.49	-0.000
338.70	-0.000
338.91	-0.000
339.11	-0.000
339.32	-0.000
339.53	-0.000
339.74	-0.000
339.95	-0.000
340.16	-0.000
340.37	-0.000
340.58	-0.000
340.79	-0.000
341.00	-0.000
341.21	-0.000
341.41	-0.000
341.62	-0.000
341.83	3.391
342.04	2.709
342.25	-0.000
342.46	3.781
342.67	3.595
342.88	2.864
343.09	2.842
343.30	4.328
343.50	-0.000
343.71	2.984
343.92	2.767
344.13	3.127
344.34	2.802
344.55	2.375
344.76	2.378
344.97	2.339
345.18	2.370
345.38	2.348
345.59	2.380
345.80	2.439
346.01	2.594
346.22	2.749
346.43	2.498
346.64	2.721
346.85	2.573
347.06	2.498
347.26	2.453
347.47	2.461
347.68	2.518
347.89	2.312
348.10	2.201
348.31	2.195
348.52	2.142
348.73	2.119
348.93	2.164
349.14	2.221
349.35	2.209
349.56	2.163
349.77	2.082
349.98	2.209
350.19	2.156
350.39	2.145
350.60	2.164
350.81	2.450
351.02	2.434
351.23	2.257
351.44	2.250
351.65	2.315
351.86	2.274
352.06	2.221
352.27	2.119
352.48	2.166
352.69	2.127
352.90	2.028
353.11	1.867
353.31	1.943
353.52	1.947
353.73	1.916
353.94	1.888
354.15	1.934
354.36	1.935
354.57	1.881
354.77	1.888
354.98	1.904
355.19	1.907
355.40	1.909
355.61	1.983
355.82	1.998
356.02	1.970
356.23	1.915
356.44	1.932
356.65	1.964
356.86	1.929
357.07	1.901
357.27	1.883
357.48	1.886
357.69	1.854
357.90	1.735
358.11	1.713
358.32	1.731
358.52	1.734
358.73	1.690
358.94	1.702
359.15	1.757
359.36	1.735
359.56	1.731
359.77	1.713
359.98	1.760
360.19	1.754
360.40	1.753
360.61	1.769
360.81	1.759
361.02	1.744
361.23	1.699
361.44	1.680
361.65	1.688
361.85	1.672
362.06	1.689
362.27	1.703
362.48	1.704
362.69	1.690
362.89	1.663
363.10	1.693
363.31	1.725
363.52	1.746
363.73	1.706
363.93	1.716
364.14	1.727
364.35	1.709
364.56	1.672
364.77	1.663
364.97	1.681
365.18	1.667
365.39	1.648
365.60	1.627
365.81	1.629
366.01	1.627
366.22	1.602
366.43	1.593
366.64	1.599
366.84	1.610
367.05	1.609
367.26	1.601
367.47	1.620
367.68	1.596
367.88	1.596
368.09	1.583
368.30	1.588
368.51	1.592
368.71	1.588
368.92	1.608
369.13	1.608
369.34	1.610
369.55	1.607
369.75	1.595
369.96	1.633
370.17	1.631
370.38	1.637
370.58	1.634
370.79	1.648
371.00	1.638
371.21	1.609
371.41	1.626
371.62	1.636
371.83	1.618
372.04	1.604
372.24	1.570
372.45	1.564
372.66	1.548
372.87	1.554
373.07	1.542
373.28	1.550
373.49	1.553
373.70	1.509
373.90	1.501
374.11	1.543
374.32	1.536
374.53	1.539
374.73	1.550
374.94	1.554
375.15	1.541
375.36	1.533
375.56	1.574
375.77	1.568
375.98	1.565
376.19	1.557
376.39	1.529
376.60	1.544
376.81	1.536
377.02	1.530
377.22	1.532
377.43	1.530
377.64	1.530
377.84	1.483
378.05	1.503
378.26	1.529
378.47	1.524
378.67	1.507
378.88	1.496
379.09	1.496
379.30	1.483
379.50	1.473
379.71	1.476
379.92	1.481
380.12	1.482
380.33	1.461
380.54	1.441
380.75	1.471
380.95	1.466
381.16	1.470
381.37	1.469
381.57	1.480
381.78	1.480
381.99	1.482
382.20	1.483
382.40	1.499
382.61	1.490
382.82	1.484
383.02	1.455
383.23	1.473
383.44	1.466
383.64	1.464
383.85	1.469
384.06	1.480
384.27	1.472
384.47	1.466
384.68	1.459
384.89	1.480
385.09	1.478
385.30	1.474
385.51	1.466
385.71	1.477
385.92	1.472
386.13	1.467
386.33	1.481
386.54	1.480
386.75	1.474
386.95	1.463
387.16	1.446
387.37	1.453
387.58	1.452
387.78	1.443
387.99	1.431
388.20	1.437
388.40	1.424
388.61	1.399
388.82	1.417
389.02	1.419
389.23	1.417
389.44	1.414
389.64	1.416
389.85	1.461
390.06	1.457
390.26	1.459
390.47	1.457
390.68	1.467
390.88	1.465
391.09	1.440
391.30	1.441
391.50	1.440
391.71	1.435
391.92	1.422
392.12	1.388
392.33	1.389
392.53	1.387
392.74	1.392
392.95	1.384
393.15	1.388
393.36	1.395
393.57	1.390
393.77	1.397
393.98	1.401
394.19	1.400
394.39	1.399
394.60	1.402
394.81	1.408
395.01	1.398
395.22	1.396
395.43	1.396
395.63	1.413
395.84	1.413
396.04	1.406
396.25	1.408
396.46	1.413
396.66	1.404
396.87	1.396
397.08	1.385
397.28	1.391
397.49	1.393
397.69	1.386
397.90	1.365
398.11	1.368
398.31	1.365
398.52	1.353
398.73	1.360
398.93	1.357
399.14	1.354
399.34	1.352
399.55	1.355
399.76	1.355
399.96	1.355
400.17	1.354
400.37	1.349
400.58	1.372
400.79	1.380
400.99	1.367
401.20	1.387
401.41	1.391
401.61	1.392
401.82	1.419
402.02	1.415
402.23	1.418
402.44	1.416
402.64	1.417
402.85	1.391
403.05	1.383
403.26	1.380
403.47	1.360
403.67	1.356
403.88	1.355
404.08	1.330
404.29	1.327
404.50	1.326
404.70	1.323
404.91	1.320
405.11	1.314
405.32	1.316
405.52	1.316
405.73	1.316
405.94	1.315
406.14	1.324
406.35	1.328
406.55	1.327
406.76	1.320
406.97	1.323
407.17	1.331
407.38	1.331
407.58	1.326
407.79	1.333
407.99	1.338
408.20	1.338
408.41	1.326
408.61	1.319
408.82	1.318
409.02	1.319
409.23	1.315
409.43	1.309
409.64	1.310
409.84	1.311
410.05	1.301
410.26	1.294
410.46	1.293
410.67	1.292
410.87	1.300
411.08	1.306
411.28	1.307
411.49	1.311
411.69	1.304
411.90	1.311
412.11	1.315
412.31	1.318
412.52	1.314
412.72	1.315
412.93	1.315
413.13	1.313
413.34	1.304
413.54	1.312
413.75	1.319
413.95	1.321
414.16	1.312
414.37	1.319
414.57	1.320
414.78	1.331
414.98	1.330
415.19	1.333
415.39	1.320
415.60	1.326
415.80	1.322
416.01	1.312
416.21	1.314
416.42	1.314
416.62	1.301
416.83	1.300
417.03	1.295
417.24	1.292
417.44	1.287
417.65	1.286
417.86	1.287
418.06	1.280
418.27	1.276
418.47	1.281
418.68	1.280
418.88	1.279
419.09	1.277
419.29	1.281
419.50	1.283
419.70	1.285
419.91	1.282
420.11	1.274
420.32	1.281
420.52	1.280
420.73	1.279
420.93	1.281
421.14	1.288
421.34	1.286
421.55	1.278
421.75	1.278
421.96	1.277
422.16	1.278
422.37	1.277
422.57	1.271
422.78	1.274
422.98	1.267
423.19	1.264
423.39	1.258
423.60	1.268
423.80	1.271
424.01	1.267
424.21	1.276
424.42	1.277
424.62	1.275
424.83	1.274
425.03	1.273
425.23	1.275
425.44	1.273
425.64	1.274
425.85	1.269
426.05	1.269
426.26	1.271
426.46	1.259
426.67	1.258
426.87	1.274
427.08	1.275
427.28	1.270
427.49	1.274
427.69	1.276
427.90	1.273
428.10	1.267
428.31	1.268
428.51	1.273
428.71	1.271
428.92	1.276
429.12	1.265
429.33	1.267
429.53	1.281
429.74	1.300
429.94	1.301
430.15	1.299
430.35	1.299
430.56	1.291
430.76	1.288
430.96	1.291
431.17	1.281
431.37	1.277
431.58	1.275
431.78	1.263
431.99	1.239
432.19	1.249
432.40	1.256
432.60	1.257
432.80	1.267
433.01	1.263
433.21	1.261
433.42	1.267
433.62	1.267
433.83	1.267
434.03	1.275
434.23	1.281
434.44	1.275
434.64	1.268
434.85	1.282
435.05	1.286
435.26	1.285
435.46	1.284
435.66	1.283
435.87	1.281
436.07	1.279
436.28	1.268
436.48	1.262
436.69	1.261
436.89	1.263
437.09	1.245
437.30	1.241
437.50	1.241
437.71	1.283
437.91	1.282
438.11	1.286
438.32	1.297
438.52	1.296
438.73	1.294
438.93	1.289
439.13	1.288
439.34	1.301
439.54	1.292
439.75	1.295
439.95	1.259
440.15	1.276
440.36	1.272
440.56	1.266
440.77	1.267
440.97	1.268
441.17	1.265
441.38	1.268
441.58	1.258
441.79	1.257
441.99	1.255
442.19	1.247
442.40	1.236
442.60	1.235
442.81	1.231
443.01	1.234
443.21	1.234
443.42	1.233
443.62	1.229
443.82	1.227
444.03	1.232
444.23	1.230
444.44	1.234
444.64	1.234
444.84	1.241
445.05	1.240
445.25	1.235
445.45	1.236
445.66	1.240
445.86	1.241
446.06	1.246
446.27	1.242
446.47	1.249
446.68	1.245
446.88	1.240
447.08	1.235
447.29	1.239
447.49	1.238
447.69	1.238
447.90	1.235
448.10	1.243
448.30	1.234
448.51	1.242
448.71	1.236
448.91	1.239
449.12	1.238
449.32	1.244
449.52	1.241
449.73	1.252
449.93	1.249
450.14	1.254
450.34	1.251
450.54	1.257
450.75	1.249
450.95	1.248
451.15	1.249
451.36	1.256
451.56	1.247
451.76	1.247
451.97	1.240
452.17	1.242
452.37	1.236
452.58	1.231
452.78	1.229
452.98	1.235
453.19	1.236
453.39	1.239
453.59	1.233
453.79	1.234
454.00	1.235
454.20	1.233
454.40	1.234
454.61	1.240
454.81	1.240
455.01	1.238
455.22	1.242
455.42	1.246
455.62	1.239
455.83	1.239
456.03	1.248
456.23	1.249
456.44	1.250
456.64	1.248
