SpectraSuite Data File
++++++++++++++++++++++++++++++++++++
Date: Fri Jun 19 12:32:00 CEST 2015
User: introlabs
Dark Spectrum Present: Yes
Reference Spectrum Present: Yes
Number of Sampled Component Spectra: 1
Spectrometers: USB4H08886
Integration Time (usec): 745692 (USB4H08886)
Spectra Averaged: 5 (USB4H08886)
Boxcar Smoothing: 5 (USB4H08886)
Correct for Electrical Dark: Yes (USB4H08886)
Strobe/Lamp Enabled: No (USB4H08886)
Correct for Detector Non-linearity: Yes (USB4H08886)
Correct for Stray Light: Yes (USB4H08886)
Number of Pixels in Processed Spectrum: 3648
>>>>>Begin Processed Spectral Data<<<<<
178.14	-0.000
178.36	-0.000
178.57	-0.000
178.79	-0.000
179.01	-0.000
179.22	-0.000
179.44	-0.000
179.65	-0.000
179.87	-0.000
180.08	-0.000
180.30	-0.000
180.52	-0.000
180.73	-0.000
180.95	-0.000
181.16	-0.000
181.38	-0.000
181.59	-0.000
181.81	-0.000
182.03	-0.000
182.24	-0.000
182.46	-0.000
182.67	-0.000
182.89	-0.000
183.10	-0.000
183.32	-0.000
183.54	-0.000
183.75	-0.000
183.97	-0.000
184.18	-0.000
184.40	-0.000
184.61	-0.000
184.83	-0.000
185.04	-0.000
185.26	-0.000
185.48	-0.000
185.69	-0.000
185.91	-0.000
186.12	-0.000
186.34	-0.000
186.55	-0.000
186.77	-0.000
186.98	-0.000
187.20	-0.000
187.42	-0.000
187.63	-0.000
187.85	-0.000
188.06	-0.000
188.28	-0.000
188.49	-0.000
188.71	-0.000
188.92	-0.000
189.14	-0.000
189.36	-0.000
189.57	-0.000
189.79	-0.000
190.00	-0.000
190.22	-0.000
190.43	-0.000
190.65	-0.000
190.86	-0.000
191.08	-0.000
191.29	-0.000
191.51	-0.000
191.72	-0.000
191.94	-0.000
192.16	-0.000
192.37	-0.000
192.59	-0.000
192.80	-0.000
193.02	-0.000
193.23	-0.000
193.45	-0.000
193.66	-0.000
193.88	-0.000
194.09	-0.000
194.31	-0.000
194.52	-0.000
194.74	-0.000
194.95	-0.000
195.17	-0.000
195.38	-0.000
195.60	-0.000
195.81	-0.000
196.03	-0.000
196.25	-0.000
196.46	-0.000
196.68	-0.000
196.89	-0.000
197.11	-0.000
197.32	-0.000
197.54	-0.000
197.75	-0.000
197.97	-0.000
198.18	-0.000
198.40	-0.000
198.61	-0.000
198.83	-0.000
199.04	-0.000
199.26	-0.000
199.47	-0.000
199.69	-0.000
199.90	-0.000
200.12	-0.000
200.33	-0.000
200.55	-0.000
200.76	-0.000
200.98	-0.000
201.19	-0.000
201.41	-0.000
201.62	-0.000
201.84	-0.000
202.05	-0.000
202.27	-0.000
202.48	-0.000
202.70	-0.000
202.91	-0.000
203.13	-0.000
203.34	-0.000
203.56	-0.000
203.77	-0.000
203.99	-0.000
204.20	-0.000
204.42	-0.000
204.63	-0.000
204.85	-0.000
205.06	-0.000
205.28	-0.000
205.49	-0.000
205.71	-0.000
205.92	-0.000
206.14	-0.000
206.35	-0.000
206.56	-0.000
206.78	-0.000
206.99	-0.000
207.21	-0.000
207.42	-0.000
207.64	-0.000
207.85	-0.000
208.07	-0.000
208.28	-0.000
208.50	-0.000
208.71	-0.000
208.93	-0.000
209.14	-0.000
209.36	-0.000
209.57	-0.000
209.79	-0.000
210.00	-0.000
210.22	-0.000
210.43	-0.000
210.64	-0.000
210.86	-0.000
211.07	-0.000
211.29	-0.000
211.50	-0.000
211.72	-0.000
211.93	-0.000
212.15	-0.000
212.36	-0.000
212.58	-0.000
212.79	-0.000
213.01	-0.000
213.22	-0.000
213.43	-0.000
213.65	-0.000
213.86	-0.000
214.08	-0.000
214.29	-0.000
214.51	-0.000
214.72	-0.000
214.94	-0.000
215.15	-0.000
215.36	-0.000
215.58	-0.000
215.79	-0.000
216.01	-0.000
216.22	-0.000
216.44	-0.000
216.65	-0.000
216.87	-0.000
217.08	-0.000
217.29	-0.000
217.51	-0.000
217.72	-0.000
217.94	-0.000
218.15	-0.000
218.37	-0.000
218.58	-0.000
218.80	-0.000
219.01	-0.000
219.22	-0.000
219.44	-0.000
219.65	-0.000
219.87	-0.000
220.08	-0.000
220.30	-0.000
220.51	-0.000
220.72	-0.000
220.94	-0.000
221.15	-0.000
221.37	-0.000
221.58	-0.000
221.79	-0.000
222.01	-0.000
222.22	-0.000
222.44	-0.000
222.65	-0.000
222.87	-0.000
223.08	-0.000
223.29	-0.000
223.51	-0.000
223.72	-0.000
223.94	-0.000
224.15	-0.000
224.36	-0.000
224.58	-0.000
224.79	-0.000
225.01	-0.000
225.22	-0.000
225.44	-0.000
225.65	-0.000
225.86	-0.000
226.08	-0.000
226.29	-0.000
226.51	-0.000
226.72	-0.000
226.93	-0.000
227.15	-0.000
227.36	-0.000
227.58	-0.000
227.79	-0.000
228.00	-0.000
228.22	-0.000
228.43	-0.000
228.65	-0.000
228.86	-0.000
229.07	-0.000
229.29	-0.000
229.50	-0.000
229.72	-0.000
229.93	-0.000
230.14	-0.000
230.36	-0.000
230.57	-0.000
230.78	-0.000
231.00	-0.000
231.21	-0.000
231.43	-0.000
231.64	-0.000
231.85	-0.000
232.07	-0.000
232.28	-0.000
232.50	-0.000
232.71	-0.000
232.92	-0.000
233.14	-0.000
233.35	-0.000
233.56	-0.000
233.78	-0.000
233.99	-0.000
234.21	-0.000
234.42	-0.000
234.63	-0.000
234.85	-0.000
235.06	-0.000
235.27	-0.000
235.49	-0.000
235.70	-0.000
235.91	-0.000
236.13	-0.000
236.34	-0.000
236.56	-0.000
236.77	-0.000
236.98	-0.000
237.20	-0.000
237.41	-0.000
237.62	-0.000
237.84	-0.000
238.05	-0.000
238.26	-0.000
238.48	-0.000
238.69	-0.000
238.91	-0.000
239.12	-0.000
239.33	-0.000
239.55	-0.000
239.76	-0.000
239.97	-0.000
240.19	-0.000
240.40	-0.000
240.61	-0.000
240.83	-0.000
241.04	-0.000
241.25	-0.000
241.47	-0.000
241.68	-0.000
241.89	-0.000
242.11	-0.000
242.32	-0.000
242.53	-0.000
242.75	-0.000
242.96	-0.000
243.17	-0.000
243.39	-0.000
243.60	-0.000
243.81	-0.000
244.03	-0.000
244.24	-0.000
244.45	-0.000
244.67	-0.000
244.88	-0.000
245.09	-0.000
245.31	-0.000
245.52	-0.000
245.73	-0.000
245.95	-0.000
246.16	-0.000
246.37	-0.000
246.59	-0.000
246.80	-0.000
247.01	-0.000
247.23	-0.000
247.44	-0.000
247.65	-0.000
247.87	-0.000
248.08	-0.000
248.29	-0.000
248.51	-0.000
248.72	-0.000
248.93	-0.000
249.15	-0.000
249.36	-0.000
249.57	-0.000
249.78	-0.000
250.00	-0.000
250.21	-0.000
250.42	-0.000
250.64	-0.000
250.85	-0.000
251.06	-0.000
251.28	-0.000
251.49	-0.000
251.70	-0.000
251.92	-0.000
252.13	-0.000
252.34	-0.000
252.55	-0.000
252.77	-0.000
252.98	-0.000
253.19	-0.000
253.41	-0.000
253.62	-0.000
253.83	-0.000
254.05	-0.000
254.26	-0.000
254.47	-0.000
254.68	-0.000
254.90	-0.000
255.11	-0.000
255.32	-0.000
255.54	-0.000
255.75	-0.000
255.96	-0.000
256.17	-0.000
256.39	-0.000
256.60	-0.000
256.81	-0.000
257.03	-0.000
257.24	-0.000
257.45	-0.000
257.66	-0.000
257.88	-0.000
258.09	-0.000
258.30	-0.000
258.51	-0.000
258.73	-0.000
258.94	-0.000
259.15	-0.000
259.37	-0.000
259.58	-0.000
259.79	-0.000
260.00	-0.000
260.22	-0.000
260.43	-0.000
260.64	-0.000
260.85	-0.000
261.07	-0.000
261.28	-0.000
261.49	-0.000
261.71	-0.000
261.92	-0.000
262.13	-0.000
262.34	-0.000
262.56	-0.000
262.77	-0.000
262.98	-0.000
263.19	-0.000
263.41	-0.000
263.62	-0.000
263.83	-0.000
264.04	-0.000
264.26	-0.000
264.47	-0.000
264.68	-0.000
264.89	-0.000
265.11	-0.000
265.32	-0.000
265.53	-0.000
265.74	-0.000
265.96	-0.000
266.17	-0.000
266.38	-0.000
266.59	-0.000
266.81	-0.000
267.02	-0.000
267.23	-0.000
267.44	-0.000
267.65	-0.000
267.87	-0.000
268.08	-0.000
268.29	-0.000
268.50	-0.000
268.72	-0.000
268.93	-0.000
269.14	-0.000
269.35	-0.000
269.57	-0.000
269.78	-0.000
269.99	-0.000
270.20	-0.000
270.41	-0.000
270.63	-0.000
270.84	-0.000
271.05	-0.000
271.26	-0.000
271.48	-0.000
271.69	-0.000
271.90	-0.000
272.11	-0.000
272.32	-0.000
272.54	-0.000
272.75	-0.000
272.96	-0.000
273.17	-0.000
273.39	-0.000
273.60	-0.000
273.81	-0.000
274.02	-0.000
274.23	-0.000
274.45	-0.000
274.66	-0.000
274.87	-0.000
275.08	-0.000
275.29	-0.000
275.51	-0.000
275.72	-0.000
275.93	-0.000
276.14	-0.000
276.35	-0.000
276.57	-0.000
276.78	-0.000
276.99	-0.000
277.20	-0.000
277.41	-0.000
277.63	-0.000
277.84	-0.000
278.05	-0.000
278.26	-0.000
278.47	-0.000
278.69	-0.000
278.90	-0.000
279.11	-0.000
279.32	-0.000
279.53	-0.000
279.74	-0.000
279.96	-0.000
280.17	-0.000
280.38	-0.000
280.59	-0.000
280.80	-0.000
281.02	-0.000
281.23	-0.000
281.44	-0.000
281.65	-0.000
281.86	-0.000
282.07	-0.000
282.29	-0.000
282.50	-0.000
282.71	-0.000
282.92	-0.000
283.13	-0.000
283.35	-0.000
283.56	-0.000
283.77	-0.000
283.98	-0.000
284.19	-0.000
284.40	-0.000
284.62	-0.000
284.83	-0.000
285.04	-0.000
285.25	-0.000
285.46	-0.000
285.67	-0.000
285.88	-0.000
286.10	-0.000
286.31	-0.000
286.52	-0.000
286.73	-0.000
286.94	-0.000
287.15	-0.000
287.37	-0.000
287.58	-0.000
287.79	-0.000
288.00	-0.000
288.21	-0.000
288.42	-0.000
288.63	-0.000
288.85	-0.000
289.06	-0.000
289.27	-0.000
289.48	-0.000
289.69	-0.000
289.90	-0.000
290.11	-0.000
290.33	-0.000
290.54	-0.000
290.75	-0.000
290.96	-0.000
291.17	-0.000
291.38	-0.000
291.59	-0.000
291.81	-0.000
292.02	-0.000
292.23	-0.000
292.44	-0.000
292.65	2.745
292.86	-0.000
293.07	-0.000
293.28	2.210
293.50	2.507
293.71	-0.000
293.92	2.757
294.13	-0.000
294.34	-0.000
294.55	-0.000
294.76	-0.000
294.97	2.425
295.19	3.037
295.40	-0.000
295.61	-0.000
295.82	2.177
296.03	1.969
296.24	2.094
296.45	1.726
296.66	1.515
296.87	1.524
297.09	1.572
297.30	1.666
297.51	1.467
297.72	1.439
297.93	1.502
298.14	1.482
298.35	1.441
298.56	1.423
298.77	1.500
298.99	1.490
299.20	1.459
299.41	1.442
299.62	1.430
299.83	1.426
300.04	1.379
300.25	1.370
300.46	1.405
300.67	1.382
300.88	1.340
301.10	1.339
301.31	1.393
301.52	1.357
301.73	1.316
301.94	1.316
302.15	1.330
302.36	1.294
302.57	1.243
302.78	1.247
302.99	1.282
303.20	1.294
303.41	1.228
303.63	1.213
303.84	1.222
304.05	1.219
304.26	1.172
304.47	1.179
304.68	1.190
304.89	1.182
305.10	1.146
305.31	1.139
305.52	1.172
305.73	1.170
305.94	1.135
306.15	1.129
306.37	1.149
306.58	1.154
306.79	1.124
307.00	1.138
307.21	1.170
307.42	1.167
307.63	1.132
307.84	1.107
308.05	1.136
308.26	1.136
308.47	1.113
308.68	1.108
308.89	1.113
309.10	1.111
309.31	1.076
309.52	1.073
309.73	1.087
309.95	1.083
310.16	1.059
310.37	1.050
310.58	1.071
310.79	1.069
311.00	1.063
311.21	1.064
311.42	1.070
311.63	1.067
311.84	1.046
312.05	1.045
312.26	1.067
312.47	1.078
312.68	1.055
312.89	1.038
313.10	1.047
313.31	1.025
313.52	1.022
313.73	1.025
313.94	1.030
314.15	1.017
314.36	0.997
314.57	0.990
314.78	0.980
314.99	0.977
315.21	0.965
315.42	0.969
315.63	0.982
315.84	0.964
316.05	0.948
316.26	0.953
316.47	0.970
316.68	0.966
316.89	0.949
317.10	0.965
317.31	0.970
317.52	0.973
317.73	0.954
317.94	0.953
318.15	0.991
318.36	0.989
318.57	0.972
318.78	0.962
318.99	0.992
319.20	0.988
319.41	0.958
319.62	0.959
319.83	0.968
320.04	0.963
320.25	0.951
320.46	0.922
320.67	0.927
320.88	0.924
321.09	0.912
321.30	0.901
321.51	0.914
321.72	0.914
321.93	0.898
322.14	0.893
322.35	0.919
322.56	0.920
322.77	0.909
322.98	0.919
323.19	0.928
323.40	0.932
323.61	0.913
323.82	0.909
324.03	0.916
324.24	0.915
324.45	0.902
324.66	0.885
324.87	0.883
325.08	0.882
325.29	0.865
325.50	0.863
325.71	0.870
325.92	0.878
326.13	0.865
326.34	0.866
326.55	0.875
326.76	0.874
326.97	0.864
327.18	0.859
327.39	0.883
327.60	0.882
327.80	0.876
328.01	0.874
328.22	0.875
328.43	0.877
328.64	0.864
328.85	0.867
329.06	0.870
329.27	0.869
329.48	0.865
329.69	0.847
329.90	0.858
330.11	0.852
330.32	0.845
330.53	0.839
330.74	0.842
330.95	0.841
331.16	0.828
331.37	0.835
331.58	0.836
331.79	0.836
332.00	0.829
332.21	0.824
332.42	0.829
332.63	0.821
332.83	0.816
333.04	0.816
333.25	0.829
333.46	0.827
333.67	0.814
333.88	0.816
334.09	0.825
334.30	0.821
334.51	0.811
334.72	0.807
334.93	0.812
335.14	0.811
335.35	0.805
335.56	0.800
335.77	0.810
335.98	0.808
336.18	0.802
336.39	0.797
336.60	0.801
336.81	0.800
337.02	0.798
337.23	0.802
337.44	0.805
337.65	0.805
337.86	0.796
338.07	0.792
338.28	0.798
338.49	0.795
338.70	0.787
338.91	0.795
339.11	0.802
339.32	0.799
339.53	0.787
339.74	0.784
339.95	0.783
340.16	0.781
340.37	0.773
340.58	0.771
340.79	0.778
341.00	0.777
341.21	0.766
341.41	0.767
341.62	0.769
341.83	0.770
342.04	0.765
342.25	0.774
342.46	0.780
342.67	0.778
342.88	0.771
343.09	0.769
343.30	0.777
343.50	0.780
343.71	0.770
343.92	0.770
344.13	0.776
344.34	0.776
344.55	0.762
344.76	0.761
344.97	0.767
345.18	0.767
345.38	0.763
345.59	0.759
345.80	0.759
346.01	0.758
346.22	0.752
346.43	0.747
346.64	0.756
346.85	0.755
347.06	0.747
347.26	0.748
347.47	0.752
347.68	0.749
347.89	0.744
348.10	0.740
348.31	0.748
348.52	0.747
348.73	0.744
348.93	0.740
349.14	0.742
349.35	0.743
349.56	0.736
349.77	0.732
349.98	0.739
350.19	0.736
350.39	0.731
350.60	0.726
350.81	0.742
351.02	0.742
351.23	0.737
351.44	0.740
351.65	0.743
351.86	0.741
352.06	0.739
352.27	0.738
352.48	0.741
352.69	0.741
352.90	0.736
353.11	0.723
353.31	0.730
353.52	0.726
353.73	0.718
353.94	0.719
354.15	0.726
354.36	0.726
354.57	0.718
354.77	0.720
354.98	0.720
355.19	0.719
355.40	0.719
355.61	0.725
355.82	0.730
356.02	0.730
356.23	0.724
356.44	0.725
356.65	0.730
356.86	0.730
357.07	0.723
357.27	0.727
357.48	0.731
357.69	0.727
357.90	0.712
358.11	0.709
358.32	0.714
358.52	0.716
358.73	0.707
358.94	0.709
359.15	0.714
359.36	0.715
359.56	0.710
359.77	0.707
359.98	0.715
360.19	0.715
360.40	0.712
360.61	0.711
360.81	0.711
361.02	0.711
361.23	0.702
361.44	0.701
361.65	0.703
361.85	0.702
362.06	0.699
362.27	0.700
362.48	0.702
362.69	0.704
362.89	0.698
363.10	0.699
363.31	0.706
363.52	0.708
363.73	0.703
363.93	0.703
364.14	0.705
364.35	0.707
364.56	0.698
364.77	0.700
364.97	0.702
365.18	0.703
365.39	0.697
365.60	0.693
365.81	0.695
366.01	0.695
366.22	0.692
366.43	0.692
366.64	0.695
366.84	0.700
367.05	0.697
367.26	0.697
367.47	0.700
367.68	0.700
367.88	0.697
368.09	0.696
368.30	0.699
368.51	0.698
368.71	0.696
368.92	0.700
369.13	0.699
369.34	0.698
369.55	0.697
369.75	0.698
369.96	0.705
370.17	0.705
370.38	0.700
370.58	0.701
370.79	0.707
371.00	0.707
371.21	0.697
371.41	0.702
371.62	0.706
371.83	0.701
372.04	0.698
372.24	0.691
372.45	0.693
372.66	0.693
372.87	0.689
373.07	0.686
373.28	0.687
373.49	0.690
373.70	0.681
373.90	0.681
374.11	0.690
374.32	0.690
374.53	0.688
374.73	0.688
374.94	0.691
375.15	0.691
375.36	0.689
375.56	0.696
375.77	0.697
375.98	0.698
376.19	0.694
376.39	0.688
376.60	0.692
376.81	0.693
377.02	0.690
377.22	0.689
377.43	0.689
377.64	0.688
377.84	0.680
378.05	0.684
378.26	0.690
378.47	0.690
378.67	0.686
378.88	0.684
379.09	0.685
379.30	0.686
379.50	0.683
379.71	0.686
379.92	0.690
380.12	0.690
380.33	0.680
380.54	0.677
380.75	0.684
380.95	0.684
381.16	0.681
381.37	0.681
381.57	0.683
381.78	0.684
381.99	0.683
382.20	0.682
382.40	0.684
382.61	0.685
382.82	0.681
383.02	0.675
383.23	0.678
383.44	0.679
383.64	0.675
383.85	0.678
384.06	0.681
384.27	0.679
384.47	0.677
384.68	0.678
384.89	0.684
385.09	0.683
385.30	0.681
385.51	0.681
385.71	0.684
385.92	0.685
386.13	0.683
386.33	0.684
386.54	0.685
386.75	0.684
386.95	0.679
387.16	0.674
387.37	0.678
387.58	0.677
387.78	0.675
387.99	0.672
388.20	0.675
388.40	0.672
388.61	0.668
388.82	0.670
389.02	0.672
389.23	0.673
389.44	0.671
389.64	0.670
389.85	0.682
390.06	0.681
390.26	0.681
390.47	0.680
390.68	0.683
390.88	0.681
391.09	0.677
391.30	0.676
391.50	0.676
391.71	0.676
391.92	0.674
392.12	0.666
392.33	0.667
392.53	0.667
392.74	0.666
392.95	0.665
393.15	0.668
393.36	0.670
393.57	0.668
393.77	0.670
393.98	0.672
394.19	0.672
394.39	0.671
394.60	0.672
394.81	0.674
395.01	0.672
395.22	0.669
395.43	0.670
395.63	0.674
395.84	0.675
396.04	0.670
396.25	0.672
396.46	0.674
396.66	0.673
396.87	0.669
397.08	0.666
397.28	0.669
397.49	0.670
397.69	0.665
397.90	0.661
398.11	0.663
398.31	0.665
398.52	0.660
398.73	0.660
398.93	0.659
399.14	0.658
399.34	0.657
399.55	0.657
399.76	0.658
399.96	0.659
400.17	0.656
400.37	0.654
400.58	0.660
400.79	0.662
400.99	0.660
401.20	0.666
401.41	0.669
401.61	0.670
401.82	0.674
402.02	0.674
402.23	0.674
402.44	0.674
402.64	0.674
402.85	0.668
403.05	0.668
403.26	0.667
403.47	0.660
403.67	0.659
403.88	0.660
404.08	0.654
404.29	0.652
404.50	0.652
404.70	0.653
404.91	0.652
405.11	0.648
405.32	0.648
405.52	0.649
405.73	0.648
405.94	0.646
406.14	0.649
406.35	0.651
406.55	0.650
406.76	0.647
406.97	0.648
407.17	0.651
407.38	0.651
407.58	0.649
407.79	0.652
407.99	0.654
408.20	0.655
408.41	0.650
408.61	0.648
408.82	0.650
409.02	0.649
409.23	0.646
409.43	0.645
409.64	0.647
409.84	0.647
410.05	0.643
410.26	0.642
410.46	0.642
410.67	0.641
410.87	0.642
411.08	0.644
411.28	0.646
411.49	0.648
411.69	0.645
411.90	0.646
412.11	0.648
412.31	0.649
412.52	0.647
412.72	0.648
412.93	0.649
413.13	0.649
413.34	0.644
413.54	0.646
413.75	0.647
413.95	0.646
414.16	0.642
414.37	0.645
414.57	0.645
414.78	0.648
414.98	0.645
415.19	0.646
415.39	0.644
415.60	0.646
415.80	0.645
416.01	0.644
416.21	0.647
416.42	0.647
416.62	0.642
416.83	0.643
417.03	0.643
417.24	0.644
417.44	0.641
417.65	0.641
417.86	0.641
418.06	0.640
418.27	0.638
418.47	0.639
418.68	0.639
418.88	0.639
419.09	0.637
419.29	0.637
419.50	0.638
419.70	0.638
419.91	0.637
420.11	0.634
420.32	0.637
420.52	0.637
420.73	0.635
420.93	0.637
421.14	0.639
421.34	0.638
421.55	0.634
421.75	0.635
421.96	0.636
422.16	0.636
422.37	0.635
422.57	0.633
422.78	0.635
422.98	0.633
423.19	0.630
423.39	0.629
423.60	0.633
423.80	0.634
424.01	0.633
424.21	0.635
424.42	0.636
424.62	0.636
424.83	0.635
425.03	0.635
425.23	0.637
425.44	0.638
425.64	0.639
425.85	0.638
426.05	0.639
426.26	0.639
426.46	0.635
426.67	0.635
426.87	0.641
427.08	0.641
427.28	0.639
427.49	0.639
427.69	0.640
427.90	0.639
428.10	0.636
428.31	0.636
428.51	0.638
428.71	0.637
428.92	0.638
429.12	0.635
429.33	0.636
429.53	0.640
429.74	0.644
429.94	0.644
430.15	0.644
430.35	0.644
430.56	0.641
430.76	0.640
430.96	0.642
431.17	0.639
431.37	0.637
431.58	0.635
431.78	0.632
431.99	0.626
432.19	0.628
432.40	0.629
432.60	0.631
432.80	0.633
433.01	0.631
433.21	0.631
433.42	0.634
433.62	0.634
433.83	0.634
434.03	0.636
434.23	0.640
434.44	0.639
434.64	0.636
434.85	0.641
435.05	0.642
435.26	0.642
435.46	0.641
435.66	0.641
435.87	0.642
436.07	0.642
436.28	0.637
436.48	0.634
436.69	0.634
436.89	0.634
437.09	0.628
437.30	0.627
437.50	0.628
437.71	0.639
437.91	0.638
438.11	0.639
438.32	0.644
438.52	0.644
438.73	0.643
438.93	0.642
439.13	0.643
439.34	0.647
439.54	0.644
439.75	0.644
439.95	0.635
440.15	0.639
440.36	0.637
440.56	0.635
440.77	0.637
440.97	0.637
441.17	0.636
441.38	0.637
441.58	0.635
441.79	0.635
441.99	0.633
442.19	0.633
442.40	0.631
442.60	0.631
442.81	0.628
443.01	0.629
443.21	0.631
443.42	0.630
443.62	0.628
443.82	0.627
444.03	0.629
444.23	0.629
444.44	0.629
444.64	0.628
444.84	0.630
445.05	0.630
445.25	0.627
445.45	0.627
445.66	0.630
445.86	0.629
446.06	0.630
446.27	0.629
446.47	0.633
446.68	0.632
446.88	0.630
447.08	0.630
447.29	0.632
447.49	0.633
447.69	0.632
447.90	0.631
448.10	0.635
448.30	0.633
448.51	0.634
448.71	0.631
448.91	0.634
449.12	0.633
449.32	0.634
449.52	0.633
449.73	0.637
449.93	0.637
450.14	0.638
450.34	0.637
450.54	0.640
450.75	0.637
450.95	0.637
451.15	0.637
451.36	0.639
451.56	0.637
451.76	0.635
451.97	0.632
452.17	0.634
452.37	0.632
452.58	0.628
452.78	0.628
452.98	0.631
453.19	0.630
453.39	0.630
453.59	0.629
453.79	0.630
454.00	0.631
454.20	0.629
454.40	0.630
454.61	0.632
454.81	0.634
455.01	0.631
455.22	0.632
455.42	0.635
455.62	0.633
455.83	0.633
456.03	0.636
456.23	0.638
456.44	0.639
456.64	0.637
456.84	0.637
457.04	0.638
457.25	0.637
457.45	0.634
457.65	0.632
457.86	0.633
458.06	0.632
458.26	0.626
458.47	0.626
458.67	0.627
458.87	0.628
459.07	0.626
459.28	0.628
459.48	0.631
459.68	0.631
459.89	0.630
