SpectraSuite Data File
++++++++++++++++++++++++++++++++++++
Date: Fri Jun 19 14:19:18 CEST 2015
User: introlabs
Dark Spectrum Present: Yes
Reference Spectrum Present: Yes
Number of Sampled Component Spectra: 1
Spectrometers: USB4H08886
Integration Time (usec): 745692 (USB4H08886)
Spectra Averaged: 5 (USB4H08886)
Boxcar Smoothing: 5 (USB4H08886)
Correct for Electrical Dark: Yes (USB4H08886)
Strobe/Lamp Enabled: No (USB4H08886)
Correct for Detector Non-linearity: Yes (USB4H08886)
Correct for Stray Light: Yes (USB4H08886)
Number of Pixels in Processed Spectrum: 3648
>>>>>Begin Processed Spectral Data<<<<<
178.14	-0.000
178.36	-0.000
178.57	-0.000
178.79	-0.000
179.01	-0.000
179.22	-0.000
179.44	-0.000
179.65	-0.000
179.87	-0.000
180.08	-0.000
180.30	-0.000
180.52	-0.000
180.73	-0.000
180.95	-0.000
181.16	-0.000
181.38	-0.000
181.59	-0.000
181.81	-0.000
182.03	-0.000
182.24	-0.000
182.46	-0.000
182.67	-0.000
182.89	-0.000
183.10	-0.000
183.32	-0.000
183.54	-0.000
183.75	-0.000
183.97	-0.000
184.18	-0.000
184.40	-0.000
184.61	-0.000
184.83	-0.000
185.04	-0.000
185.26	-0.000
185.48	-0.000
185.69	-0.000
185.91	-0.000
186.12	-0.000
186.34	-0.000
186.55	-0.000
186.77	-0.000
186.98	-0.000
187.20	-0.000
187.42	-0.000
187.63	-0.000
187.85	-0.000
188.06	-0.000
188.28	-0.000
188.49	-0.000
188.71	-0.000
188.92	-0.000
189.14	-0.000
189.36	-0.000
189.57	-0.000
189.79	-0.000
190.00	-0.000
190.22	-0.000
190.43	-0.000
190.65	-0.000
190.86	-0.000
191.08	-0.000
191.29	-0.000
191.51	-0.000
191.72	-0.000
191.94	-0.000
192.16	-0.000
192.37	-0.000
192.59	-0.000
192.80	-0.000
193.02	-0.000
193.23	-0.000
193.45	-0.000
193.66	-0.000
193.88	-0.000
194.09	-0.000
194.31	-0.000
194.52	-0.000
194.74	-0.000
194.95	-0.000
195.17	-0.000
195.38	-0.000
195.60	-0.000
195.81	-0.000
196.03	-0.000
196.25	-0.000
196.46	-0.000
196.68	-0.000
196.89	-0.000
197.11	-0.000
197.32	-0.000
197.54	-0.000
197.75	-0.000
197.97	-0.000
198.18	-0.000
198.40	-0.000
198.61	-0.000
198.83	-0.000
199.04	-0.000
199.26	-0.000
199.47	-0.000
199.69	-0.000
199.90	-0.000
200.12	-0.000
200.33	-0.000
200.55	-0.000
200.76	-0.000
200.98	-0.000
201.19	-0.000
201.41	-0.000
201.62	-0.000
201.84	-0.000
202.05	-0.000
202.27	-0.000
202.48	-0.000
202.70	-0.000
202.91	-0.000
203.13	-0.000
203.34	-0.000
203.56	-0.000
203.77	-0.000
203.99	-0.000
204.20	-0.000
204.42	-0.000
204.63	-0.000
204.85	-0.000
205.06	-0.000
205.28	-0.000
205.49	-0.000
205.71	-0.000
205.92	-0.000
206.14	-0.000
206.35	-0.000
206.56	-0.000
206.78	-0.000
206.99	-0.000
207.21	-0.000
207.42	-0.000
207.64	-0.000
207.85	-0.000
208.07	-0.000
208.28	-0.000
208.50	-0.000
208.71	-0.000
208.93	-0.000
209.14	-0.000
209.36	-0.000
209.57	-0.000
209.79	-0.000
210.00	-0.000
210.22	-0.000
210.43	-0.000
210.64	-0.000
210.86	-0.000
211.07	-0.000
211.29	-0.000
211.50	-0.000
211.72	-0.000
211.93	-0.000
212.15	-0.000
212.36	-0.000
212.58	-0.000
212.79	-0.000
213.01	-0.000
213.22	-0.000
213.43	-0.000
213.65	-0.000
213.86	-0.000
214.08	-0.000
214.29	-0.000
214.51	-0.000
214.72	-0.000
214.94	-0.000
215.15	-0.000
215.36	-0.000
215.58	-0.000
215.79	-0.000
216.01	-0.000
216.22	-0.000
216.44	-0.000
216.65	-0.000
216.87	-0.000
217.08	-0.000
217.29	-0.000
217.51	-0.000
217.72	-0.000
217.94	-0.000
218.15	-0.000
218.37	-0.000
218.58	-0.000
218.80	-0.000
219.01	-0.000
219.22	-0.000
219.44	-0.000
219.65	-0.000
219.87	-0.000
220.08	-0.000
220.30	-0.000
220.51	-0.000
220.72	-0.000
220.94	-0.000
221.15	-0.000
221.37	-0.000
221.58	-0.000
221.79	-0.000
222.01	-0.000
222.22	-0.000
222.44	-0.000
222.65	-0.000
222.87	-0.000
223.08	-0.000
223.29	-0.000
223.51	-0.000
223.72	-0.000
223.94	-0.000
224.15	-0.000
224.36	-0.000
224.58	-0.000
224.79	-0.000
225.01	-0.000
225.22	-0.000
225.44	-0.000
225.65	-0.000
225.86	-0.000
226.08	-0.000
226.29	-0.000
226.51	-0.000
226.72	-0.000
226.93	-0.000
227.15	-0.000
227.36	-0.000
227.58	-0.000
227.79	-0.000
228.00	-0.000
228.22	-0.000
228.43	-0.000
228.65	-0.000
228.86	-0.000
229.07	-0.000
229.29	-0.000
229.50	-0.000
229.72	-0.000
229.93	-0.000
230.14	-0.000
230.36	-0.000
230.57	-0.000
230.78	-0.000
231.00	-0.000
231.21	-0.000
231.43	-0.000
231.64	-0.000
231.85	-0.000
232.07	-0.000
232.28	-0.000
232.50	-0.000
232.71	-0.000
232.92	-0.000
233.14	-0.000
233.35	-0.000
233.56	-0.000
233.78	-0.000
233.99	-0.000
234.21	-0.000
234.42	-0.000
234.63	-0.000
234.85	-0.000
235.06	-0.000
235.27	-0.000
235.49	-0.000
235.70	-0.000
235.91	-0.000
236.13	-0.000
236.34	-0.000
236.56	-0.000
236.77	-0.000
236.98	-0.000
237.20	-0.000
237.41	-0.000
237.62	-0.000
237.84	-0.000
238.05	-0.000
238.26	-0.000
238.48	-0.000
238.69	-0.000
238.91	-0.000
239.12	-0.000
239.33	-0.000
239.55	-0.000
239.76	-0.000
239.97	-0.000
240.19	-0.000
240.40	-0.000
240.61	-0.000
240.83	-0.000
241.04	-0.000
241.25	-0.000
241.47	-0.000
241.68	-0.000
241.89	-0.000
242.11	-0.000
242.32	-0.000
242.53	-0.000
242.75	-0.000
242.96	-0.000
243.17	-0.000
243.39	-0.000
243.60	-0.000
243.81	-0.000
244.03	-0.000
244.24	-0.000
244.45	-0.000
244.67	-0.000
244.88	-0.000
245.09	-0.000
245.31	-0.000
245.52	-0.000
245.73	-0.000
245.95	-0.000
246.16	-0.000
246.37	-0.000
246.59	-0.000
246.80	-0.000
247.01	-0.000
247.23	-0.000
247.44	-0.000
247.65	-0.000
247.87	-0.000
248.08	-0.000
248.29	-0.000
248.51	-0.000
248.72	-0.000
248.93	-0.000
249.15	-0.000
249.36	-0.000
249.57	-0.000
249.78	-0.000
250.00	-0.000
250.21	-0.000
250.42	-0.000
250.64	-0.000
250.85	-0.000
251.06	-0.000
251.28	-0.000
251.49	-0.000
251.70	-0.000
251.92	-0.000
252.13	-0.000
252.34	-0.000
252.55	-0.000
252.77	-0.000
252.98	-0.000
253.19	-0.000
253.41	-0.000
253.62	-0.000
253.83	-0.000
254.05	-0.000
254.26	-0.000
254.47	-0.000
254.68	-0.000
254.90	-0.000
255.11	-0.000
255.32	-0.000
255.54	-0.000
255.75	-0.000
255.96	-0.000
256.17	-0.000
256.39	-0.000
256.60	-0.000
256.81	-0.000
257.03	-0.000
257.24	-0.000
257.45	-0.000
257.66	-0.000
257.88	-0.000
258.09	-0.000
258.30	-0.000
258.51	-0.000
258.73	-0.000
258.94	-0.000
259.15	-0.000
259.37	-0.000
259.58	-0.000
259.79	-0.000
260.00	-0.000
260.22	-0.000
260.43	-0.000
260.64	-0.000
260.85	-0.000
261.07	-0.000
261.28	-0.000
261.49	-0.000
261.71	-0.000
261.92	-0.000
262.13	-0.000
262.34	-0.000
262.56	-0.000
262.77	-0.000
262.98	-0.000
263.19	-0.000
263.41	-0.000
263.62	-0.000
263.83	-0.000
264.04	-0.000
264.26	-0.000
264.47	-0.000
264.68	-0.000
264.89	-0.000
265.11	-0.000
265.32	-0.000
265.53	-0.000
265.74	-0.000
265.96	-0.000
266.17	-0.000
266.38	-0.000
266.59	-0.000
266.81	-0.000
267.02	-0.000
267.23	-0.000
267.44	-0.000
267.65	-0.000
267.87	-0.000
268.08	-0.000
268.29	-0.000
268.50	-0.000
268.72	-0.000
268.93	-0.000
269.14	-0.000
269.35	-0.000
269.57	-0.000
269.78	-0.000
269.99	-0.000
270.20	-0.000
270.41	-0.000
270.63	-0.000
270.84	-0.000
271.05	-0.000
271.26	-0.000
271.48	-0.000
271.69	-0.000
271.90	-0.000
272.11	-0.000
272.32	-0.000
272.54	-0.000
272.75	-0.000
272.96	-0.000
273.17	-0.000
273.39	-0.000
273.60	-0.000
273.81	-0.000
274.02	-0.000
274.23	-0.000
274.45	-0.000
274.66	-0.000
274.87	-0.000
275.08	-0.000
275.29	-0.000
275.51	-0.000
275.72	-0.000
275.93	-0.000
276.14	-0.000
276.35	-0.000
276.57	-0.000
276.78	-0.000
276.99	-0.000
277.20	-0.000
277.41	-0.000
277.63	-0.000
277.84	-0.000
278.05	-0.000
278.26	-0.000
278.47	-0.000
278.69	-0.000
278.90	-0.000
279.11	-0.000
279.32	-0.000
279.53	-0.000
279.74	-0.000
279.96	-0.000
280.17	-0.000
280.38	-0.000
280.59	-0.000
280.80	-0.000
281.02	-0.000
281.23	-0.000
281.44	-0.000
281.65	-0.000
281.86	-0.000
282.07	-0.000
282.29	-0.000
282.50	-0.000
282.71	-0.000
282.92	-0.000
283.13	-0.000
283.35	-0.000
283.56	-0.000
283.77	-0.000
283.98	-0.000
284.19	-0.000
284.40	-0.000
284.62	-0.000
284.83	-0.000
285.04	-0.000
285.25	-0.000
285.46	-0.000
285.67	-0.000
285.88	-0.000
286.10	-0.000
286.31	-0.000
286.52	-0.000
286.73	-0.000
286.94	-0.000
287.15	-0.000
287.37	-0.000
287.58	-0.000
287.79	-0.000
288.00	-0.000
288.21	-0.000
288.42	-0.000
288.63	-0.000
288.85	-0.000
289.06	-0.000
289.27	-0.000
289.48	-0.000
289.69	-0.000
289.90	-0.000
290.11	-0.000
290.33	-0.000
290.54	-0.000
290.75	-0.000
290.96	-0.000
291.17	-0.000
291.38	-0.000
291.59	-0.000
291.81	-0.000
292.02	-0.000
292.23	-0.000
292.44	-0.000
292.65	-0.000
292.86	-0.000
293.07	-0.000
293.28	-0.000
293.50	-0.000
293.71	-0.000
293.92	-0.000
294.13	-0.000
294.34	-0.000
294.55	-0.000
294.76	-0.000
294.97	-0.000
295.19	-0.000
295.40	-0.000
295.61	-0.000
295.82	-0.000
296.03	3.416
296.24	-0.000
296.45	2.070
296.66	1.723
296.87	1.747
297.09	1.821
297.30	2.017
297.51	1.679
297.72	1.646
297.93	1.743
298.14	1.708
298.35	1.669
298.56	1.634
298.77	1.750
298.99	1.723
299.20	1.689
299.41	1.659
299.62	1.613
299.83	1.602
300.04	1.532
300.25	1.512
300.46	1.553
300.67	1.527
300.88	1.476
301.10	1.483
301.31	1.557
301.52	1.502
301.73	1.448
301.94	1.452
302.15	1.465
302.36	1.429
302.57	1.372
302.78	1.381
302.99	1.423
303.20	1.444
303.41	1.361
303.63	1.336
303.84	1.343
304.05	1.342
304.26	1.287
304.47	1.297
304.68	1.303
304.89	1.296
305.10	1.251
305.31	1.238
305.52	1.279
305.73	1.272
305.94	1.237
306.15	1.231
306.37	1.251
306.58	1.259
306.79	1.229
307.00	1.245
307.21	1.280
307.42	1.276
307.63	1.242
307.84	1.211
308.05	1.247
308.26	1.249
308.47	1.227
308.68	1.223
308.89	1.224
309.10	1.220
309.31	1.183
309.52	1.176
309.73	1.191
309.95	1.184
310.16	1.156
310.37	1.144
310.58	1.161
310.79	1.162
311.00	1.157
311.21	1.160
311.42	1.164
311.63	1.158
311.84	1.140
312.05	1.135
312.26	1.159
312.47	1.173
312.68	1.147
312.89	1.131
313.10	1.136
313.31	1.110
313.52	1.109
313.73	1.109
313.94	1.112
314.15	1.098
314.36	1.079
314.57	1.072
314.78	1.059
314.99	1.055
315.21	1.041
315.42	1.045
315.63	1.059
315.84	1.037
316.05	1.024
316.26	1.030
316.47	1.046
316.68	1.043
316.89	1.024
317.10	1.044
317.31	1.051
317.52	1.054
317.73	1.035
317.94	1.033
318.15	1.077
318.36	1.078
318.57	1.061
318.78	1.052
318.99	1.085
319.20	1.082
319.41	1.048
319.62	1.049
319.83	1.063
320.04	1.057
320.25	1.045
320.46	1.011
320.67	1.014
320.88	1.011
321.09	0.996
321.30	0.983
321.51	0.997
321.72	0.995
321.93	0.980
322.14	0.973
322.35	1.000
322.56	1.000
322.77	0.987
322.98	0.999
323.19	1.007
323.40	1.014
323.61	0.993
323.82	0.988
324.03	0.993
324.24	0.990
324.45	0.977
324.66	0.959
324.87	0.955
325.08	0.955
325.29	0.936
325.50	0.929
325.71	0.934
325.92	0.942
326.13	0.929
326.34	0.931
326.55	0.938
326.76	0.937
326.97	0.925
327.18	0.921
327.39	0.947
327.60	0.948
327.80	0.948
328.01	0.947
328.22	0.946
328.43	0.950
328.64	0.936
328.85	0.941
329.06	0.944
329.27	0.945
329.48	0.940
329.69	0.921
329.90	0.930
330.11	0.922
330.32	0.916
330.53	0.909
330.74	0.910
330.95	0.909
331.16	0.895
331.37	0.903
331.58	0.903
331.79	0.903
332.00	0.895
332.21	0.890
332.42	0.894
332.63	0.884
332.83	0.882
333.04	0.883
333.25	0.896
333.46	0.894
333.67	0.880
333.88	0.882
334.09	0.891
334.30	0.888
334.51	0.878
334.72	0.875
334.93	0.880
335.14	0.877
335.35	0.869
335.56	0.865
335.77	0.874
335.98	0.873
336.18	0.866
336.39	0.860
336.60	0.865
336.81	0.863
337.02	0.862
337.23	0.865
337.44	0.867
337.65	0.870
337.86	0.860
338.07	0.854
338.28	0.859
338.49	0.855
338.70	0.848
338.91	0.854
339.11	0.861
339.32	0.858
339.53	0.847
339.74	0.845
339.95	0.842
340.16	0.840
340.37	0.832
340.58	0.830
340.79	0.835
341.00	0.834
341.21	0.823
341.41	0.824
341.62	0.826
341.83	0.826
342.04	0.821
342.25	0.832
342.46	0.837
342.67	0.836
342.88	0.831
343.09	0.829
343.30	0.838
343.50	0.841
343.71	0.831
343.92	0.828
344.13	0.834
344.34	0.832
344.55	0.815
344.76	0.814
344.97	0.818
345.18	0.817
345.38	0.814
345.59	0.808
345.80	0.807
346.01	0.805
346.22	0.801
346.43	0.795
346.64	0.804
346.85	0.803
347.06	0.796
347.26	0.797
347.47	0.801
347.68	0.797
347.89	0.793
348.10	0.788
348.31	0.796
348.52	0.794
348.73	0.792
348.93	0.789
349.14	0.792
349.35	0.792
349.56	0.786
349.77	0.782
349.98	0.787
350.19	0.784
350.39	0.779
350.60	0.775
350.81	0.791
351.02	0.789
351.23	0.784
351.44	0.788
351.65	0.791
351.86	0.788
352.06	0.786
352.27	0.786
352.48	0.789
352.69	0.788
352.90	0.783
353.11	0.770
353.31	0.776
353.52	0.773
353.73	0.764
353.94	0.764
354.15	0.770
354.36	0.769
354.57	0.760
354.77	0.762
354.98	0.762
355.19	0.761
355.40	0.760
355.61	0.767
355.82	0.771
356.02	0.771
356.23	0.765
356.44	0.766
356.65	0.771
356.86	0.772
357.07	0.766
357.27	0.769
357.48	0.772
357.69	0.767
357.90	0.752
358.11	0.750
358.32	0.754
358.52	0.757
358.73	0.747
358.94	0.749
359.15	0.753
359.36	0.753
359.56	0.748
359.77	0.745
359.98	0.752
360.19	0.751
360.40	0.747
360.61	0.748
360.81	0.747
361.02	0.747
361.23	0.740
361.44	0.738
361.65	0.739
361.85	0.738
362.06	0.736
362.27	0.738
362.48	0.739
362.69	0.741
362.89	0.735
363.10	0.737
363.31	0.742
363.52	0.744
363.73	0.739
363.93	0.740
364.14	0.744
364.35	0.745
364.56	0.735
364.77	0.735
364.97	0.738
365.18	0.738
365.39	0.732
365.60	0.728
365.81	0.729
366.01	0.730
366.22	0.727
366.43	0.725
366.64	0.728
366.84	0.733
367.05	0.730
367.26	0.730
367.47	0.732
367.68	0.732
367.88	0.730
368.09	0.728
368.30	0.730
368.51	0.729
368.71	0.728
368.92	0.732
369.13	0.730
369.34	0.730
369.55	0.728
369.75	0.727
369.96	0.734
370.17	0.734
370.38	0.731
370.58	0.730
370.79	0.736
371.00	0.734
371.21	0.725
371.41	0.731
371.62	0.735
371.83	0.731
372.04	0.729
372.24	0.722
372.45	0.723
372.66	0.724
372.87	0.721
373.07	0.717
373.28	0.718
373.49	0.723
373.70	0.713
373.90	0.712
374.11	0.721
374.32	0.721
374.53	0.720
374.73	0.720
374.94	0.723
375.15	0.723
375.36	0.720
375.56	0.729
375.77	0.728
375.98	0.729
376.19	0.726
376.39	0.720
376.60	0.725
376.81	0.726
377.02	0.724
377.22	0.723
377.43	0.723
377.64	0.723
377.84	0.715
378.05	0.719
378.26	0.725
378.47	0.724
378.67	0.721
378.88	0.718
379.09	0.718
379.30	0.718
379.50	0.716
379.71	0.718
379.92	0.722
380.12	0.720
380.33	0.712
380.54	0.709
380.75	0.715
380.95	0.715
381.16	0.712
381.37	0.712
381.57	0.714
381.78	0.714
381.99	0.713
382.20	0.712
382.40	0.716
382.61	0.716
382.82	0.713
383.02	0.706
383.23	0.710
383.44	0.711
383.64	0.709
383.85	0.712
384.06	0.715
384.27	0.714
384.47	0.712
384.68	0.711
384.89	0.717
385.09	0.717
385.30	0.716
385.51	0.715
385.71	0.718
385.92	0.719
386.13	0.718
386.33	0.719
386.54	0.720
386.75	0.719
386.95	0.716
387.16	0.711
387.37	0.713
387.58	0.713
387.78	0.711
387.99	0.709
388.20	0.711
388.40	0.707
388.61	0.703
388.82	0.706
389.02	0.709
389.23	0.709
389.44	0.707
389.64	0.708
389.85	0.719
390.06	0.718
390.26	0.719
390.47	0.718
390.68	0.721
390.88	0.719
391.09	0.715
391.30	0.713
391.50	0.713
391.71	0.713
391.92	0.710
392.12	0.703
392.33	0.703
392.53	0.703
392.74	0.703
392.95	0.702
393.15	0.704
393.36	0.706
393.57	0.703
393.77	0.707
393.98	0.709
394.19	0.708
394.39	0.707
394.60	0.710
394.81	0.711
395.01	0.710
395.22	0.708
395.43	0.709
395.63	0.714
395.84	0.716
396.04	0.711
396.25	0.713
396.46	0.716
396.66	0.714
396.87	0.711
397.08	0.708
397.28	0.710
397.49	0.711
397.69	0.707
397.90	0.702
398.11	0.704
398.31	0.705
398.52	0.701
398.73	0.702
398.93	0.701
399.14	0.701
399.34	0.699
399.55	0.700
399.76	0.701
399.96	0.703
400.17	0.701
400.37	0.700
400.58	0.706
400.79	0.708
400.99	0.705
401.20	0.711
401.41	0.713
401.61	0.715
401.82	0.719
402.02	0.719
402.23	0.720
402.44	0.720
402.64	0.719
402.85	0.714
403.05	0.713
403.26	0.712
403.47	0.706
403.67	0.705
403.88	0.706
404.08	0.699
404.29	0.698
404.50	0.697
404.70	0.698
404.91	0.696
405.11	0.693
405.32	0.694
405.52	0.694
405.73	0.694
405.94	0.692
406.14	0.694
406.35	0.697
406.55	0.696
406.76	0.694
406.97	0.694
407.17	0.697
407.38	0.698
407.58	0.695
407.79	0.698
407.99	0.701
408.20	0.701
408.41	0.697
408.61	0.695
408.82	0.696
409.02	0.696
409.23	0.693
409.43	0.692
409.64	0.693
409.84	0.693
410.05	0.689
410.26	0.688
410.46	0.688
410.67	0.688
410.87	0.689
411.08	0.691
411.28	0.693
411.49	0.695
411.69	0.692
411.90	0.694
412.11	0.696
412.31	0.696
412.52	0.695
412.72	0.696
412.93	0.697
413.13	0.695
413.34	0.692
413.54	0.694
413.75	0.696
413.95	0.695
414.16	0.692
414.37	0.695
414.57	0.695
414.78	0.698
414.98	0.695
415.19	0.696
415.39	0.694
415.60	0.695
415.80	0.694
416.01	0.692
416.21	0.694
416.42	0.693
416.62	0.688
416.83	0.688
417.03	0.688
417.24	0.688
417.44	0.686
417.65	0.685
417.86	0.686
418.06	0.684
418.27	0.682
418.47	0.684
418.68	0.685
418.88	0.686
419.09	0.685
419.29	0.685
419.50	0.685
419.70	0.685
419.91	0.683
420.11	0.681
420.32	0.683
420.52	0.683
420.73	0.682
420.93	0.683
421.14	0.685
421.34	0.684
421.55	0.681
421.75	0.681
421.96	0.682
422.16	0.682
422.37	0.681
422.57	0.679
422.78	0.681
422.98	0.677
423.19	0.675
423.39	0.673
423.60	0.677
423.80	0.678
424.01	0.677
424.21	0.679
424.42	0.680
424.62	0.680
424.83	0.679
425.03	0.678
425.23	0.681
425.44	0.681
425.64	0.681
425.85	0.680
426.05	0.681
426.26	0.681
426.46	0.677
426.67	0.677
426.87	0.682
427.08	0.683
427.28	0.681
427.49	0.681
427.69	0.682
427.90	0.681
428.10	0.678
428.31	0.678
428.51	0.680
428.71	0.679
428.92	0.680
429.12	0.677
429.33	0.678
429.53	0.681
429.74	0.685
429.94	0.685
430.15	0.685
430.35	0.685
430.56	0.682
430.76	0.682
430.96	0.682
431.17	0.679
431.37	0.676
431.58	0.674
431.78	0.671
431.99	0.665
432.19	0.667
432.40	0.668
432.60	0.669
432.80	0.672
433.01	0.669
433.21	0.669
433.42	0.672
433.62	0.673
433.83	0.673
434.03	0.675
434.23	0.679
434.44	0.677
434.64	0.675
434.85	0.680
435.05	0.681
435.26	0.681
435.46	0.680
435.66	0.680
435.87	0.679
436.07	0.679
436.28	0.674
436.48	0.672
436.69	0.671
436.89	0.671
437.09	0.665
437.30	0.664
437.50	0.664
437.71	0.676
437.91	0.674
438.11	0.675
438.32	0.680
438.52	0.680
438.73	0.679
438.93	0.677
439.13	0.677
439.34	0.681
439.54	0.678
439.75	0.678
439.95	0.668
440.15	0.673
440.36	0.672
440.56	0.669
440.77	0.670
440.97	0.671
441.17	0.670
441.38	0.671
441.58	0.668
441.79	0.668
441.99	0.667
442.19	0.665
442.40	0.663
442.60	0.662
442.81	0.660
443.01	0.660
443.21	0.661
443.42	0.660
443.62	0.659
443.82	0.658
444.03	0.661
444.23	0.660
444.44	0.660
444.64	0.660
444.84	0.661
445.05	0.660
445.25	0.659
445.45	0.658
445.66	0.661
445.86	0.660
446.06	0.662
446.27	0.661
446.47	0.664
446.68	0.663
446.88	0.661
447.08	0.660
447.29	0.663
447.49	0.662
447.69	0.662
447.90	0.660
448.10	0.664
448.30	0.661
448.51	0.662
448.71	0.660
448.91	0.662
449.12	0.661
449.32	0.663
449.52	0.661
449.73	0.665
449.93	0.664
450.14	0.665
450.34	0.664
450.54	0.667
450.75	0.664
450.95	0.663
451.15	0.663
451.36	0.665
451.56	0.662
451.76	0.662
451.97	0.657
452.17	0.658
452.37	0.656
452.58	0.652
452.78	0.652
452.98	0.655
453.19	0.654
453.39	0.654
453.59	0.653
453.79	0.654
454.00	0.654
454.20	0.654
454.40	0.654
454.61	0.657
454.81	0.658
455.01	0.656
455.22	0.656
455.42	0.658
455.62	0.656
455.83	0.656
456.03	0.659
456.23	0.660
456.44	0.661
456.64	0.660
456.84	0.660
457.04	0.660
457.25	0.659
457.45	0.656
457.65	0.654
457.86	0.655
458.06	0.653
458.26	0.649
458.47	0.648
458.67	0.650
458.87	0.650
459.07	0.647
459.28	0.650
459.48	0.653
459.68	0.653
459.89	0.652
