SpectraSuite Data File
++++++++++++++++++++++++++++++++++++
Date: Fri Jun 19 15:33:09 CEST 2015
User: introlabs
Dark Spectrum Present: Yes
Reference Spectrum Present: Yes
Number of Sampled Component Spectra: 1
Spectrometers: USB4H08886
Integration Time (usec): 745692 (USB4H08886)
Spectra Averaged: 5 (USB4H08886)
Boxcar Smoothing: 5 (USB4H08886)
Correct for Electrical Dark: Yes (USB4H08886)
Strobe/Lamp Enabled: No (USB4H08886)
Correct for Detector Non-linearity: Yes (USB4H08886)
Correct for Stray Light: Yes (USB4H08886)
Number of Pixels in Processed Spectrum: 3648
>>>>>Begin Processed Spectral Data<<<<<
178.14	-0.000
178.36	-0.000
178.57	-0.000
178.79	-0.000
179.01	-0.000
179.22	-0.000
179.44	-0.000
179.65	-0.000
179.87	-0.000
180.08	-0.000
180.30	-0.000
180.52	-0.000
180.73	-0.000
180.95	-0.000
181.16	-0.000
181.38	-0.000
181.59	-0.000
181.81	-0.000
182.03	-0.000
182.24	-0.000
182.46	-0.000
182.67	-0.000
182.89	-0.000
183.10	-0.000
183.32	-0.000
183.54	-0.000
183.75	-0.000
183.97	-0.000
184.18	-0.000
184.40	-0.000
184.61	-0.000
184.83	-0.000
185.04	-0.000
185.26	-0.000
185.48	-0.000
185.69	-0.000
185.91	-0.000
186.12	-0.000
186.34	-0.000
186.55	-0.000
186.77	-0.000
186.98	-0.000
187.20	-0.000
187.42	-0.000
187.63	-0.000
187.85	-0.000
188.06	-0.000
188.28	-0.000
188.49	-0.000
188.71	-0.000
188.92	-0.000
189.14	-0.000
189.36	-0.000
189.57	-0.000
189.79	-0.000
190.00	-0.000
190.22	-0.000
190.43	-0.000
190.65	-0.000
190.86	-0.000
191.08	-0.000
191.29	-0.000
191.51	-0.000
191.72	-0.000
191.94	-0.000
192.16	-0.000
192.37	-0.000
192.59	-0.000
192.80	-0.000
193.02	-0.000
193.23	-0.000
193.45	-0.000
193.66	-0.000
193.88	-0.000
194.09	-0.000
194.31	-0.000
194.52	-0.000
194.74	-0.000
194.95	-0.000
195.17	-0.000
195.38	-0.000
195.60	-0.000
195.81	-0.000
196.03	-0.000
196.25	-0.000
196.46	-0.000
196.68	-0.000
196.89	-0.000
197.11	-0.000
197.32	-0.000
197.54	-0.000
197.75	-0.000
197.97	-0.000
198.18	-0.000
198.40	-0.000
198.61	-0.000
198.83	-0.000
199.04	-0.000
199.26	-0.000
199.47	-0.000
199.69	-0.000
199.90	-0.000
200.12	-0.000
200.33	-0.000
200.55	-0.000
200.76	-0.000
200.98	-0.000
201.19	-0.000
201.41	-0.000
201.62	-0.000
201.84	-0.000
202.05	-0.000
202.27	-0.000
202.48	-0.000
202.70	-0.000
202.91	-0.000
203.13	-0.000
203.34	-0.000
203.56	-0.000
203.77	-0.000
203.99	-0.000
204.20	-0.000
204.42	-0.000
204.63	-0.000
204.85	-0.000
205.06	-0.000
205.28	-0.000
205.49	-0.000
205.71	-0.000
205.92	-0.000
206.14	-0.000
206.35	-0.000
206.56	-0.000
206.78	-0.000
206.99	-0.000
207.21	-0.000
207.42	-0.000
207.64	-0.000
207.85	-0.000
208.07	-0.000
208.28	-0.000
208.50	-0.000
208.71	-0.000
208.93	-0.000
209.14	-0.000
209.36	-0.000
209.57	-0.000
209.79	-0.000
210.00	-0.000
210.22	-0.000
210.43	-0.000
210.64	-0.000
210.86	-0.000
211.07	-0.000
211.29	-0.000
211.50	-0.000
211.72	-0.000
211.93	-0.000
212.15	-0.000
212.36	-0.000
212.58	-0.000
212.79	-0.000
213.01	-0.000
213.22	-0.000
213.43	-0.000
213.65	-0.000
213.86	-0.000
214.08	-0.000
214.29	-0.000
214.51	-0.000
214.72	-0.000
214.94	-0.000
215.15	-0.000
215.36	-0.000
215.58	-0.000
215.79	-0.000
216.01	-0.000
216.22	-0.000
216.44	-0.000
216.65	-0.000
216.87	-0.000
217.08	-0.000
217.29	-0.000
217.51	-0.000
217.72	-0.000
217.94	-0.000
218.15	-0.000
218.37	-0.000
218.58	-0.000
218.80	-0.000
219.01	-0.000
219.22	-0.000
219.44	-0.000
219.65	-0.000
219.87	-0.000
220.08	-0.000
220.30	-0.000
220.51	-0.000
220.72	-0.000
220.94	-0.000
221.15	-0.000
221.37	-0.000
221.58	-0.000
221.79	-0.000
222.01	-0.000
222.22	-0.000
222.44	-0.000
222.65	-0.000
222.87	-0.000
223.08	-0.000
223.29	-0.000
223.51	-0.000
223.72	-0.000
223.94	-0.000
224.15	-0.000
224.36	-0.000
224.58	-0.000
224.79	-0.000
225.01	-0.000
225.22	-0.000
225.44	-0.000
225.65	-0.000
225.86	-0.000
226.08	-0.000
226.29	-0.000
226.51	-0.000
226.72	-0.000
226.93	-0.000
227.15	-0.000
227.36	-0.000
227.58	-0.000
227.79	-0.000
228.00	-0.000
228.22	-0.000
228.43	-0.000
228.65	-0.000
228.86	-0.000
229.07	-0.000
229.29	-0.000
229.50	-0.000
229.72	-0.000
229.93	-0.000
230.14	-0.000
230.36	-0.000
230.57	-0.000
230.78	-0.000
231.00	-0.000
231.21	-0.000
231.43	-0.000
231.64	-0.000
231.85	-0.000
232.07	-0.000
232.28	-0.000
232.50	-0.000
232.71	-0.000
232.92	-0.000
233.14	-0.000
233.35	-0.000
233.56	-0.000
233.78	-0.000
233.99	-0.000
234.21	-0.000
234.42	-0.000
234.63	-0.000
234.85	-0.000
235.06	-0.000
235.27	-0.000
235.49	-0.000
235.70	-0.000
235.91	-0.000
236.13	-0.000
236.34	-0.000
236.56	-0.000
236.77	-0.000
236.98	-0.000
237.20	-0.000
237.41	-0.000
237.62	-0.000
237.84	-0.000
238.05	-0.000
238.26	-0.000
238.48	-0.000
238.69	-0.000
238.91	-0.000
239.12	-0.000
239.33	-0.000
239.55	-0.000
239.76	-0.000
239.97	-0.000
240.19	-0.000
240.40	-0.000
240.61	-0.000
240.83	-0.000
241.04	-0.000
241.25	-0.000
241.47	-0.000
241.68	-0.000
241.89	-0.000
242.11	-0.000
242.32	-0.000
242.53	-0.000
242.75	-0.000
242.96	-0.000
243.17	-0.000
243.39	-0.000
243.60	-0.000
243.81	-0.000
244.03	-0.000
244.24	-0.000
244.45	-0.000
244.67	-0.000
244.88	-0.000
245.09	-0.000
245.31	-0.000
245.52	-0.000
245.73	-0.000
245.95	-0.000
246.16	-0.000
246.37	-0.000
246.59	-0.000
246.80	-0.000
247.01	-0.000
247.23	-0.000
247.44	-0.000
247.65	-0.000
247.87	-0.000
248.08	-0.000
248.29	-0.000
248.51	-0.000
248.72	-0.000
248.93	-0.000
249.15	-0.000
249.36	-0.000
249.57	-0.000
249.78	-0.000
250.00	-0.000
250.21	-0.000
250.42	-0.000
250.64	-0.000
250.85	-0.000
251.06	-0.000
251.28	-0.000
251.49	-0.000
251.70	-0.000
251.92	-0.000
252.13	-0.000
252.34	-0.000
252.55	-0.000
252.77	-0.000
252.98	-0.000
253.19	-0.000
253.41	-0.000
253.62	-0.000
253.83	-0.000
254.05	-0.000
254.26	-0.000
254.47	-0.000
254.68	-0.000
254.90	-0.000
255.11	-0.000
255.32	-0.000
255.54	-0.000
255.75	-0.000
255.96	-0.000
256.17	-0.000
256.39	-0.000
256.60	-0.000
256.81	-0.000
257.03	-0.000
257.24	-0.000
257.45	-0.000
257.66	-0.000
257.88	-0.000
258.09	-0.000
258.30	-0.000
258.51	-0.000
258.73	-0.000
258.94	-0.000
259.15	-0.000
259.37	-0.000
259.58	-0.000
259.79	-0.000
260.00	-0.000
260.22	-0.000
260.43	-0.000
260.64	-0.000
260.85	-0.000
261.07	-0.000
261.28	-0.000
261.49	-0.000
261.71	-0.000
261.92	-0.000
262.13	-0.000
262.34	-0.000
262.56	-0.000
262.77	-0.000
262.98	-0.000
263.19	-0.000
263.41	-0.000
263.62	-0.000
263.83	-0.000
264.04	-0.000
264.26	-0.000
264.47	-0.000
264.68	-0.000
264.89	-0.000
265.11	-0.000
265.32	-0.000
265.53	-0.000
265.74	-0.000
265.96	-0.000
266.17	-0.000
266.38	-0.000
266.59	-0.000
266.81	-0.000
267.02	-0.000
267.23	-0.000
267.44	-0.000
267.65	-0.000
267.87	-0.000
268.08	-0.000
268.29	-0.000
268.50	-0.000
268.72	-0.000
268.93	-0.000
269.14	-0.000
269.35	-0.000
269.57	-0.000
269.78	-0.000
269.99	-0.000
270.20	-0.000
270.41	-0.000
270.63	-0.000
270.84	-0.000
271.05	-0.000
271.26	-0.000
271.48	-0.000
271.69	-0.000
271.90	-0.000
272.11	-0.000
272.32	-0.000
272.54	-0.000
272.75	-0.000
272.96	-0.000
273.17	-0.000
273.39	-0.000
273.60	-0.000
273.81	-0.000
274.02	-0.000
274.23	-0.000
274.45	-0.000
274.66	-0.000
274.87	-0.000
275.08	-0.000
275.29	-0.000
275.51	-0.000
275.72	-0.000
275.93	-0.000
276.14	-0.000
276.35	-0.000
276.57	-0.000
276.78	-0.000
276.99	-0.000
277.20	-0.000
277.41	-0.000
277.63	-0.000
277.84	-0.000
278.05	-0.000
278.26	-0.000
278.47	-0.000
278.69	-0.000
278.90	-0.000
279.11	-0.000
279.32	-0.000
279.53	-0.000
279.74	-0.000
279.96	-0.000
280.17	-0.000
280.38	-0.000
280.59	-0.000
280.80	-0.000
281.02	-0.000
281.23	-0.000
281.44	-0.000
281.65	-0.000
281.86	-0.000
282.07	-0.000
282.29	-0.000
282.50	-0.000
282.71	-0.000
282.92	-0.000
283.13	-0.000
283.35	-0.000
283.56	-0.000
283.77	-0.000
283.98	-0.000
284.19	-0.000
284.40	-0.000
284.62	-0.000
284.83	-0.000
285.04	-0.000
285.25	-0.000
285.46	-0.000
285.67	-0.000
285.88	-0.000
286.10	-0.000
286.31	-0.000
286.52	-0.000
286.73	-0.000
286.94	-0.000
287.15	-0.000
287.37	-0.000
287.58	-0.000
287.79	-0.000
288.00	-0.000
288.21	-0.000
288.42	-0.000
288.63	-0.000
288.85	-0.000
289.06	-0.000
289.27	-0.000
289.48	-0.000
289.69	-0.000
289.90	-0.000
290.11	-0.000
290.33	-0.000
290.54	-0.000
290.75	-0.000
290.96	-0.000
291.17	-0.000
291.38	-0.000
291.59	-0.000
291.81	-0.000
292.02	-0.000
292.23	-0.000
292.44	-0.000
292.65	-0.000
292.86	-0.000
293.07	-0.000
293.28	-0.000
293.50	-0.000
293.71	-0.000
293.92	-0.000
294.13	-0.000
294.34	-0.000
294.55	-0.000
294.76	-0.000
294.97	-0.000
295.19	-0.000
295.40	-0.000
295.61	-0.000
295.82	-0.000
296.03	-0.000
296.24	-0.000
296.45	2.141
296.66	1.818
296.87	1.838
297.09	1.920
297.30	2.134
297.51	1.762
297.72	1.731
297.93	1.809
298.14	1.774
298.35	1.731
298.56	1.702
298.77	1.813
298.99	1.782
299.20	1.764
299.41	1.737
299.62	1.685
299.83	1.669
300.04	1.605
300.25	1.592
300.46	1.620
300.67	1.591
300.88	1.545
301.10	1.547
301.31	1.613
301.52	1.550
301.73	1.503
301.94	1.504
302.15	1.521
302.36	1.477
302.57	1.426
302.78	1.440
302.99	1.479
303.20	1.500
303.41	1.417
303.63	1.397
303.84	1.402
304.05	1.397
304.26	1.338
304.47	1.341
304.68	1.342
304.89	1.331
305.10	1.289
305.31	1.275
305.52	1.318
305.73	1.313
305.94	1.275
306.15	1.266
306.37	1.287
306.58	1.295
306.79	1.269
307.00	1.294
307.21	1.336
307.42	1.333
307.63	1.301
307.84	1.265
308.05	1.299
308.26	1.301
308.47	1.282
308.68	1.276
308.89	1.274
309.10	1.274
309.31	1.234
309.52	1.222
309.73	1.231
309.95	1.226
310.16	1.199
310.37	1.186
310.58	1.203
310.79	1.201
311.00	1.200
311.21	1.200
311.42	1.199
311.63	1.193
311.84	1.174
312.05	1.174
312.26	1.196
312.47	1.208
312.68	1.186
312.89	1.169
313.10	1.174
313.31	1.147
313.52	1.154
313.73	1.154
313.94	1.153
314.15	1.139
314.36	1.119
314.57	1.111
314.78	1.098
314.99	1.093
315.21	1.082
315.42	1.089
315.63	1.099
315.84	1.075
316.05	1.065
316.26	1.073
316.47	1.087
316.68	1.084
316.89	1.065
317.10	1.085
317.31	1.090
317.52	1.092
317.73	1.071
317.94	1.070
318.15	1.111
318.36	1.108
318.57	1.094
318.78	1.084
318.99	1.117
319.20	1.117
319.41	1.084
319.62	1.086
319.83	1.097
320.04	1.093
320.25	1.082
320.46	1.051
320.67	1.053
320.88	1.047
321.09	1.035
321.30	1.020
321.51	1.033
321.72	1.030
321.93	1.016
322.14	1.009
322.35	1.034
322.56	1.037
322.77	1.025
322.98	1.036
323.19	1.044
323.40	1.051
323.61	1.031
323.82	1.026
324.03	1.031
324.24	1.028
324.45	1.017
324.66	0.998
324.87	0.993
325.08	0.991
325.29	0.974
325.50	0.965
325.71	0.969
325.92	0.976
326.13	0.964
326.34	0.963
326.55	0.971
326.76	0.969
326.97	0.960
327.18	0.955
327.39	0.980
327.60	0.980
327.80	0.982
328.01	0.980
328.22	0.979
328.43	0.982
328.64	0.973
328.85	0.976
329.06	0.977
329.27	0.977
329.48	0.974
329.69	0.953
329.90	0.962
330.11	0.956
330.32	0.949
330.53	0.943
330.74	0.943
330.95	0.941
331.16	0.927
331.37	0.935
331.58	0.934
331.79	0.934
332.00	0.927
332.21	0.921
332.42	0.924
332.63	0.916
332.83	0.913
333.04	0.915
333.25	0.927
333.46	0.926
333.67	0.912
333.88	0.913
334.09	0.922
334.30	0.919
334.51	0.911
334.72	0.906
334.93	0.908
335.14	0.907
335.35	0.901
335.56	0.895
335.77	0.903
335.98	0.901
336.18	0.897
336.39	0.890
336.60	0.893
336.81	0.893
337.02	0.893
337.23	0.896
337.44	0.898
337.65	0.899
337.86	0.889
338.07	0.884
338.28	0.888
338.49	0.886
338.70	0.879
338.91	0.886
339.11	0.891
339.32	0.887
339.53	0.877
339.74	0.875
339.95	0.872
340.16	0.871
340.37	0.865
340.58	0.863
340.79	0.865
341.00	0.865
341.21	0.856
341.41	0.856
341.62	0.858
341.83	0.858
342.04	0.853
342.25	0.863
342.46	0.867
342.67	0.866
342.88	0.860
343.09	0.859
343.30	0.865
343.50	0.868
343.71	0.858
343.92	0.856
344.13	0.860
344.34	0.860
344.55	0.845
344.76	0.843
344.97	0.847
345.18	0.845
345.38	0.843
345.59	0.838
345.80	0.837
346.01	0.835
346.22	0.830
346.43	0.824
346.64	0.831
346.85	0.830
347.06	0.824
347.26	0.823
347.47	0.826
347.68	0.822
347.89	0.820
348.10	0.814
348.31	0.821
348.52	0.821
348.73	0.820
348.93	0.817
349.14	0.818
349.35	0.818
349.56	0.813
349.77	0.807
349.98	0.813
350.19	0.809
350.39	0.804
350.60	0.799
350.81	0.815
351.02	0.813
351.23	0.808
351.44	0.812
351.65	0.815
351.86	0.812
352.06	0.812
352.27	0.812
352.48	0.812
352.69	0.812
352.90	0.808
353.11	0.794
353.31	0.801
353.52	0.798
353.73	0.790
353.94	0.791
354.15	0.796
354.36	0.796
354.57	0.787
354.77	0.790
354.98	0.789
355.19	0.788
355.40	0.788
355.61	0.794
355.82	0.796
356.02	0.796
356.23	0.790
356.44	0.791
356.65	0.793
356.86	0.793
357.07	0.787
357.27	0.791
357.48	0.793
357.69	0.790
357.90	0.774
358.11	0.772
358.32	0.775
358.52	0.778
358.73	0.768
358.94	0.771
359.15	0.775
359.36	0.775
359.56	0.771
359.77	0.768
359.98	0.773
360.19	0.773
360.40	0.770
360.61	0.772
360.81	0.770
361.02	0.770
361.23	0.763
361.44	0.761
361.65	0.762
361.85	0.762
362.06	0.760
362.27	0.762
362.48	0.762
362.69	0.764
362.89	0.757
363.10	0.759
363.31	0.764
363.52	0.767
363.73	0.762
363.93	0.762
364.14	0.763
364.35	0.765
364.56	0.755
364.77	0.756
364.97	0.758
365.18	0.759
365.39	0.752
365.60	0.749
365.81	0.750
366.01	0.751
366.22	0.748
366.43	0.747
366.64	0.748
366.84	0.754
367.05	0.751
367.26	0.751
367.47	0.752
367.68	0.753
367.88	0.750
368.09	0.747
368.30	0.749
368.51	0.748
368.71	0.747
368.92	0.752
369.13	0.748
369.34	0.749
369.55	0.748
369.75	0.748
369.96	0.755
370.17	0.755
370.38	0.752
370.58	0.751
370.79	0.755
371.00	0.755
371.21	0.747
371.41	0.752
371.62	0.755
371.83	0.751
372.04	0.748
372.24	0.742
372.45	0.743
372.66	0.743
372.87	0.740
373.07	0.738
373.28	0.738
373.49	0.741
373.70	0.732
373.90	0.731
374.11	0.740
374.32	0.740
374.53	0.739
374.73	0.740
374.94	0.742
375.15	0.741
375.36	0.739
375.56	0.747
375.77	0.747
375.98	0.748
376.19	0.746
376.39	0.739
376.60	0.742
376.81	0.742
377.02	0.740
377.22	0.740
377.43	0.740
377.64	0.741
377.84	0.732
378.05	0.737
378.26	0.742
378.47	0.741
378.67	0.738
378.88	0.735
379.09	0.735
379.30	0.735
379.50	0.733
379.71	0.735
379.92	0.738
380.12	0.737
380.33	0.729
380.54	0.726
380.75	0.732
380.95	0.732
381.16	0.731
381.37	0.731
381.57	0.733
381.78	0.733
381.99	0.733
382.20	0.732
382.40	0.735
382.61	0.735
382.82	0.733
383.02	0.727
383.23	0.730
383.44	0.731
383.64	0.730
383.85	0.732
384.06	0.735
384.27	0.732
384.47	0.731
384.68	0.731
384.89	0.736
385.09	0.735
385.30	0.735
385.51	0.733
385.71	0.737
385.92	0.736
386.13	0.735
386.33	0.738
386.54	0.738
386.75	0.738
386.95	0.735
387.16	0.730
387.37	0.733
387.58	0.733
387.78	0.731
387.99	0.729
388.20	0.731
388.40	0.729
388.61	0.724
388.82	0.728
389.02	0.730
389.23	0.730
389.44	0.728
389.64	0.729
389.85	0.740
390.06	0.739
390.26	0.740
390.47	0.739
390.68	0.741
390.88	0.740
391.09	0.735
391.30	0.735
391.50	0.735
391.71	0.735
391.92	0.732
392.12	0.724
392.33	0.725
392.53	0.725
392.74	0.725
392.95	0.724
393.15	0.726
393.36	0.728
393.57	0.726
393.77	0.730
393.98	0.731
394.19	0.731
394.39	0.730
394.60	0.732
394.81	0.734
395.01	0.732
395.22	0.731
395.43	0.732
395.63	0.736
395.84	0.738
396.04	0.734
396.25	0.736
396.46	0.738
396.66	0.736
396.87	0.734
397.08	0.731
397.28	0.733
397.49	0.735
397.69	0.732
397.90	0.727
398.11	0.728
398.31	0.729
398.52	0.726
398.73	0.727
398.93	0.726
399.14	0.724
399.34	0.723
399.55	0.724
399.76	0.725
399.96	0.725
400.17	0.724
400.37	0.722
400.58	0.729
400.79	0.730
400.99	0.728
401.20	0.734
401.41	0.736
401.61	0.738
401.82	0.743
402.02	0.742
402.23	0.743
402.44	0.743
402.64	0.743
402.85	0.737
403.05	0.736
403.26	0.735
403.47	0.729
403.67	0.728
403.88	0.729
404.08	0.723
404.29	0.721
404.50	0.721
404.70	0.721
404.91	0.720
405.11	0.718
405.32	0.718
405.52	0.719
405.73	0.718
405.94	0.717
406.14	0.719
406.35	0.721
406.55	0.721
406.76	0.718
406.97	0.720
407.17	0.723
407.38	0.723
407.58	0.722
407.79	0.724
407.99	0.726
408.20	0.727
408.41	0.724
408.61	0.722
408.82	0.723
409.02	0.722
409.23	0.720
409.43	0.719
409.64	0.719
409.84	0.719
410.05	0.716
410.26	0.714
410.46	0.713
410.67	0.713
410.87	0.715
411.08	0.717
411.28	0.719
411.49	0.721
411.69	0.719
411.90	0.721
412.11	0.722
412.31	0.723
412.52	0.722
412.72	0.723
412.93	0.723
413.13	0.721
413.34	0.717
413.54	0.719
413.75	0.720
413.95	0.720
414.16	0.717
414.37	0.720
414.57	0.720
414.78	0.722
414.98	0.721
415.19	0.722
415.39	0.720
415.60	0.722
415.80	0.721
416.01	0.719
416.21	0.720
416.42	0.720
416.62	0.715
416.83	0.715
417.03	0.714
417.24	0.714
417.44	0.712
417.65	0.711
417.86	0.712
418.06	0.710
418.27	0.708
418.47	0.710
418.68	0.711
418.88	0.711
419.09	0.709
419.29	0.710
419.50	0.710
419.70	0.710
419.91	0.709
420.11	0.707
420.32	0.709
420.52	0.708
420.73	0.707
420.93	0.708
421.14	0.709
421.34	0.709
421.55	0.706
421.75	0.706
421.96	0.706
422.16	0.706
422.37	0.705
422.57	0.702
422.78	0.704
422.98	0.700
423.19	0.698
423.39	0.696
423.60	0.699
423.80	0.700
424.01	0.699
424.21	0.702
424.42	0.703
424.62	0.702
424.83	0.702
425.03	0.702
425.23	0.704
425.44	0.704
425.64	0.705
425.85	0.703
426.05	0.704
426.26	0.704
426.46	0.700
426.67	0.700
426.87	0.704
427.08	0.705
427.28	0.703
427.49	0.703
427.69	0.704
427.90	0.703
428.10	0.700
428.31	0.700
428.51	0.702
428.71	0.701
428.92	0.702
429.12	0.700
429.33	0.700
429.53	0.704
429.74	0.708
429.94	0.709
430.15	0.708
430.35	0.707
430.56	0.704
430.76	0.703
430.96	0.704
431.17	0.701
431.37	0.698
431.58	0.696
431.78	0.692
431.99	0.685
432.19	0.687
432.40	0.689
432.60	0.690
432.80	0.693
433.01	0.691
433.21	0.691
433.42	0.693
433.62	0.694
433.83	0.693
434.03	0.696
434.23	0.698
434.44	0.697
434.64	0.694
434.85	0.699
435.05	0.700
435.26	0.700
435.46	0.699
435.66	0.699
435.87	0.698
436.07	0.698
436.28	0.694
436.48	0.691
436.69	0.690
436.89	0.690
437.09	0.684
437.30	0.683
437.50	0.683
437.71	0.695
437.91	0.694
438.11	0.696
438.32	0.700
438.52	0.700
438.73	0.699
438.93	0.698
439.13	0.698
439.34	0.701
439.54	0.698
439.75	0.698
439.95	0.688
440.15	0.692
440.36	0.690
440.56	0.688
440.77	0.688
440.97	0.689
441.17	0.688
441.38	0.689
441.58	0.686
441.79	0.687
441.99	0.685
442.19	0.684
442.40	0.681
442.60	0.681
442.81	0.679
443.01	0.679
443.21	0.679
443.42	0.678
443.62	0.677
443.82	0.677
444.03	0.678
444.23	0.678
444.44	0.678
444.64	0.677
444.84	0.678
445.05	0.678
445.25	0.675
445.45	0.675
445.66	0.677
445.86	0.676
446.06	0.677
446.27	0.676
446.47	0.679
446.68	0.677
446.88	0.676
447.08	0.675
447.29	0.677
447.49	0.677
447.69	0.677
447.90	0.676
448.10	0.680
448.30	0.677
448.51	0.679
448.71	0.676
448.91	0.678
449.12	0.677
449.32	0.679
449.52	0.678
449.73	0.681
449.93	0.680
450.14	0.681
450.34	0.680
450.54	0.682
450.75	0.679
450.95	0.678
451.15	0.678
451.36	0.680
451.56	0.676
451.76	0.676
451.97	0.673
452.17	0.673
452.37	0.671
452.58	0.668
452.78	0.668
452.98	0.670
453.19	0.670
453.39	0.671
453.59	0.668
453.79	0.669
454.00	0.669
454.20	0.668
454.40	0.668
454.61	0.670
454.81	0.671
455.01	0.669
455.22	0.670
455.42	0.671
455.62	0.668
455.83	0.669
456.03	0.672
456.23	0.674
456.44	0.674
456.64	0.673
456.84	0.674
457.04	0.674
457.25	0.673
457.45	0.670
457.65	0.669
457.86	0.670
458.06	0.668
458.26	0.664
458.47	0.663
458.67	0.664
458.87	0.664
459.07	0.663
459.28	0.664
459.48	0.667
459.68	0.667
459.89	0.666
