SpectraSuite Data File
++++++++++++++++++++++++++++++++++++
Date: Fri Jun 19 15:53:20 CEST 2015
User: introlabs
Dark Spectrum Present: Yes
Reference Spectrum Present: Yes
Number of Sampled Component Spectra: 1
Spectrometers: USB4H08886
Integration Time (usec): 745692 (USB4H08886)
Spectra Averaged: 5 (USB4H08886)
Boxcar Smoothing: 5 (USB4H08886)
Correct for Electrical Dark: Yes (USB4H08886)
Strobe/Lamp Enabled: No (USB4H08886)
Correct for Detector Non-linearity: Yes (USB4H08886)
Correct for Stray Light: Yes (USB4H08886)
Number of Pixels in Processed Spectrum: 3648
>>>>>Begin Processed Spectral Data<<<<<
178.14	-0.000
178.36	-0.000
178.57	-0.000
178.79	-0.000
179.01	-0.000
179.22	-0.000
179.44	-0.000
179.65	-0.000
179.87	-0.000
180.08	-0.000
180.30	-0.000
180.52	-0.000
180.73	-0.000
180.95	-0.000
181.16	-0.000
181.38	-0.000
181.59	-0.000
181.81	-0.000
182.03	-0.000
182.24	-0.000
182.46	-0.000
182.67	-0.000
182.89	-0.000
183.10	-0.000
183.32	-0.000
183.54	-0.000
183.75	-0.000
183.97	-0.000
184.18	-0.000
184.40	-0.000
184.61	-0.000
184.83	-0.000
185.04	-0.000
185.26	-0.000
185.48	-0.000
185.69	-0.000
185.91	-0.000
186.12	-0.000
186.34	-0.000
186.55	-0.000
186.77	-0.000
186.98	-0.000
187.20	-0.000
187.42	-0.000
187.63	-0.000
187.85	-0.000
188.06	-0.000
188.28	-0.000
188.49	-0.000
188.71	-0.000
188.92	-0.000
189.14	-0.000
189.36	-0.000
189.57	-0.000
189.79	-0.000
190.00	-0.000
190.22	-0.000
190.43	-0.000
190.65	-0.000
190.86	-0.000
191.08	-0.000
191.29	-0.000
191.51	-0.000
191.72	-0.000
191.94	-0.000
192.16	-0.000
192.37	-0.000
192.59	-0.000
192.80	-0.000
193.02	-0.000
193.23	-0.000
193.45	-0.000
193.66	-0.000
193.88	-0.000
194.09	-0.000
194.31	-0.000
194.52	-0.000
194.74	-0.000
194.95	-0.000
195.17	-0.000
195.38	-0.000
195.60	-0.000
195.81	-0.000
196.03	-0.000
196.25	-0.000
196.46	-0.000
196.68	-0.000
196.89	-0.000
197.11	-0.000
197.32	-0.000
197.54	-0.000
197.75	-0.000
197.97	-0.000
198.18	-0.000
198.40	-0.000
198.61	-0.000
198.83	-0.000
199.04	-0.000
199.26	-0.000
199.47	-0.000
199.69	-0.000
199.90	-0.000
200.12	-0.000
200.33	-0.000
200.55	-0.000
200.76	-0.000
200.98	-0.000
201.19	-0.000
201.41	-0.000
201.62	-0.000
201.84	-0.000
202.05	-0.000
202.27	-0.000
202.48	-0.000
202.70	-0.000
202.91	-0.000
203.13	-0.000
203.34	-0.000
203.56	-0.000
203.77	-0.000
203.99	-0.000
204.20	-0.000
204.42	-0.000
204.63	-0.000
204.85	-0.000
205.06	-0.000
205.28	-0.000
205.49	-0.000
205.71	-0.000
205.92	-0.000
206.14	-0.000
206.35	-0.000
206.56	-0.000
206.78	-0.000
206.99	-0.000
207.21	-0.000
207.42	-0.000
207.64	-0.000
207.85	-0.000
208.07	-0.000
208.28	-0.000
208.50	-0.000
208.71	-0.000
208.93	-0.000
209.14	-0.000
209.36	-0.000
209.57	-0.000
209.79	-0.000
210.00	-0.000
210.22	-0.000
210.43	-0.000
210.64	-0.000
210.86	-0.000
211.07	-0.000
211.29	-0.000
211.50	-0.000
211.72	-0.000
211.93	-0.000
212.15	-0.000
212.36	-0.000
212.58	-0.000
212.79	-0.000
213.01	-0.000
213.22	-0.000
213.43	-0.000
213.65	-0.000
213.86	-0.000
214.08	-0.000
214.29	-0.000
214.51	-0.000
214.72	-0.000
214.94	-0.000
215.15	-0.000
215.36	-0.000
215.58	-0.000
215.79	-0.000
216.01	-0.000
216.22	-0.000
216.44	-0.000
216.65	-0.000
216.87	-0.000
217.08	-0.000
217.29	-0.000
217.51	-0.000
217.72	-0.000
217.94	-0.000
218.15	-0.000
218.37	-0.000
218.58	-0.000
218.80	-0.000
219.01	-0.000
219.22	-0.000
219.44	-0.000
219.65	-0.000
219.87	-0.000
220.08	-0.000
220.30	-0.000
220.51	-0.000
220.72	-0.000
220.94	-0.000
221.15	-0.000
221.37	-0.000
221.58	-0.000
221.79	-0.000
222.01	-0.000
222.22	-0.000
222.44	-0.000
222.65	-0.000
222.87	-0.000
223.08	-0.000
223.29	-0.000
223.51	-0.000
223.72	-0.000
223.94	-0.000
224.15	-0.000
224.36	-0.000
224.58	-0.000
224.79	-0.000
225.01	-0.000
225.22	-0.000
225.44	-0.000
225.65	-0.000
225.86	-0.000
226.08	-0.000
226.29	-0.000
226.51	-0.000
226.72	-0.000
226.93	-0.000
227.15	-0.000
227.36	-0.000
227.58	-0.000
227.79	-0.000
228.00	-0.000
228.22	-0.000
228.43	-0.000
228.65	-0.000
228.86	-0.000
229.07	-0.000
229.29	-0.000
229.50	-0.000
229.72	-0.000
229.93	-0.000
230.14	-0.000
230.36	-0.000
230.57	-0.000
230.78	-0.000
231.00	-0.000
231.21	-0.000
231.43	-0.000
231.64	-0.000
231.85	-0.000
232.07	-0.000
232.28	-0.000
232.50	-0.000
232.71	-0.000
232.92	-0.000
233.14	-0.000
233.35	-0.000
233.56	-0.000
233.78	-0.000
233.99	-0.000
234.21	-0.000
234.42	-0.000
234.63	-0.000
234.85	-0.000
235.06	-0.000
235.27	-0.000
235.49	-0.000
235.70	-0.000
235.91	-0.000
236.13	-0.000
236.34	-0.000
236.56	-0.000
236.77	-0.000
236.98	-0.000
237.20	-0.000
237.41	-0.000
237.62	-0.000
237.84	-0.000
238.05	-0.000
238.26	-0.000
238.48	-0.000
238.69	-0.000
238.91	-0.000
239.12	-0.000
239.33	-0.000
239.55	-0.000
239.76	-0.000
239.97	-0.000
240.19	-0.000
240.40	-0.000
240.61	-0.000
240.83	-0.000
241.04	-0.000
241.25	-0.000
241.47	-0.000
241.68	-0.000
241.89	-0.000
242.11	-0.000
242.32	-0.000
242.53	-0.000
242.75	-0.000
242.96	-0.000
243.17	-0.000
243.39	-0.000
243.60	-0.000
243.81	-0.000
244.03	-0.000
244.24	-0.000
244.45	-0.000
244.67	-0.000
244.88	-0.000
245.09	-0.000
245.31	-0.000
245.52	-0.000
245.73	-0.000
245.95	-0.000
246.16	-0.000
246.37	-0.000
246.59	-0.000
246.80	-0.000
247.01	-0.000
247.23	-0.000
247.44	-0.000
247.65	-0.000
247.87	-0.000
248.08	-0.000
248.29	-0.000
248.51	-0.000
248.72	-0.000
248.93	-0.000
249.15	-0.000
249.36	-0.000
249.57	-0.000
249.78	-0.000
250.00	-0.000
250.21	-0.000
250.42	-0.000
250.64	-0.000
250.85	-0.000
251.06	-0.000
251.28	-0.000
251.49	-0.000
251.70	-0.000
251.92	-0.000
252.13	-0.000
252.34	-0.000
252.55	-0.000
252.77	-0.000
252.98	-0.000
253.19	-0.000
253.41	-0.000
253.62	-0.000
253.83	-0.000
254.05	-0.000
254.26	-0.000
254.47	-0.000
254.68	-0.000
254.90	-0.000
255.11	-0.000
255.32	-0.000
255.54	-0.000
255.75	-0.000
255.96	-0.000
256.17	-0.000
256.39	-0.000
256.60	-0.000
256.81	-0.000
257.03	-0.000
257.24	-0.000
257.45	-0.000
257.66	-0.000
257.88	-0.000
258.09	-0.000
258.30	-0.000
258.51	-0.000
258.73	-0.000
258.94	-0.000
259.15	-0.000
259.37	-0.000
259.58	-0.000
259.79	-0.000
260.00	-0.000
260.22	-0.000
260.43	-0.000
260.64	-0.000
260.85	-0.000
261.07	-0.000
261.28	-0.000
261.49	-0.000
261.71	-0.000
261.92	-0.000
262.13	-0.000
262.34	-0.000
262.56	-0.000
262.77	-0.000
262.98	-0.000
263.19	-0.000
263.41	-0.000
263.62	-0.000
263.83	-0.000
264.04	-0.000
264.26	-0.000
264.47	-0.000
264.68	-0.000
264.89	-0.000
265.11	-0.000
265.32	-0.000
265.53	-0.000
265.74	-0.000
265.96	-0.000
266.17	-0.000
266.38	-0.000
266.59	-0.000
266.81	-0.000
267.02	-0.000
267.23	-0.000
267.44	-0.000
267.65	-0.000
267.87	-0.000
268.08	-0.000
268.29	-0.000
268.50	-0.000
268.72	-0.000
268.93	-0.000
269.14	-0.000
269.35	-0.000
269.57	-0.000
269.78	-0.000
269.99	-0.000
270.20	-0.000
270.41	-0.000
270.63	-0.000
270.84	-0.000
271.05	-0.000
271.26	-0.000
271.48	-0.000
271.69	-0.000
271.90	-0.000
272.11	-0.000
272.32	-0.000
272.54	-0.000
272.75	-0.000
272.96	-0.000
273.17	-0.000
273.39	-0.000
273.60	-0.000
273.81	-0.000
274.02	-0.000
274.23	-0.000
274.45	-0.000
274.66	-0.000
274.87	-0.000
275.08	-0.000
275.29	-0.000
275.51	-0.000
275.72	-0.000
275.93	-0.000
276.14	-0.000
276.35	-0.000
276.57	-0.000
276.78	-0.000
276.99	-0.000
277.20	-0.000
277.41	-0.000
277.63	-0.000
277.84	-0.000
278.05	-0.000
278.26	-0.000
278.47	-0.000
278.69	-0.000
278.90	-0.000
279.11	-0.000
279.32	-0.000
279.53	-0.000
279.74	-0.000
279.96	-0.000
280.17	-0.000
280.38	-0.000
280.59	-0.000
280.80	-0.000
281.02	-0.000
281.23	-0.000
281.44	-0.000
281.65	-0.000
281.86	-0.000
282.07	-0.000
282.29	-0.000
282.50	-0.000
282.71	-0.000
282.92	-0.000
283.13	-0.000
283.35	-0.000
283.56	-0.000
283.77	-0.000
283.98	-0.000
284.19	-0.000
284.40	-0.000
284.62	-0.000
284.83	-0.000
285.04	-0.000
285.25	-0.000
285.46	-0.000
285.67	-0.000
285.88	-0.000
286.10	-0.000
286.31	-0.000
286.52	-0.000
286.73	-0.000
286.94	-0.000
287.15	-0.000
287.37	-0.000
287.58	-0.000
287.79	-0.000
288.00	-0.000
288.21	-0.000
288.42	-0.000
288.63	-0.000
288.85	-0.000
289.06	-0.000
289.27	-0.000
289.48	-0.000
289.69	-0.000
289.90	-0.000
290.11	-0.000
290.33	-0.000
290.54	-0.000
290.75	-0.000
290.96	-0.000
291.17	-0.000
291.38	-0.000
291.59	-0.000
291.81	-0.000
292.02	-0.000
292.23	-0.000
292.44	-0.000
292.65	-0.000
292.86	-0.000
293.07	-0.000
293.28	-0.000
293.50	-0.000
293.71	-0.000
293.92	-0.000
294.13	-0.000
294.34	-0.000
294.55	-0.000
294.76	-0.000
294.97	-0.000
295.19	-0.000
295.40	-0.000
295.61	-0.000
295.82	-0.000
296.03	-0.000
296.24	-0.000
296.45	2.109
296.66	1.782
296.87	1.809
297.09	1.870
297.30	2.062
297.51	1.727
297.72	1.713
297.93	1.800
298.14	1.766
298.35	1.741
298.56	1.721
298.77	1.849
298.99	1.824
299.20	1.803
299.41	1.764
299.62	1.695
299.83	1.674
300.04	1.615
300.25	1.607
300.46	1.637
300.67	1.609
300.88	1.564
301.10	1.558
301.31	1.619
301.52	1.555
301.73	1.507
301.94	1.516
302.15	1.525
302.36	1.482
302.57	1.421
302.78	1.428
302.99	1.467
303.20	1.488
303.41	1.411
303.63	1.394
303.84	1.400
304.05	1.404
304.26	1.347
304.47	1.358
304.68	1.357
304.89	1.353
305.10	1.320
305.31	1.304
305.52	1.341
305.73	1.334
305.94	1.297
306.15	1.286
306.37	1.303
306.58	1.307
306.79	1.278
307.00	1.300
307.21	1.332
307.42	1.321
307.63	1.291
307.84	1.261
308.05	1.297
308.26	1.299
308.47	1.281
308.68	1.274
308.89	1.271
309.10	1.268
309.31	1.234
309.52	1.225
309.73	1.237
309.95	1.232
310.16	1.203
310.37	1.192
310.58	1.205
310.79	1.204
311.00	1.208
311.21	1.212
311.42	1.213
311.63	1.207
311.84	1.192
312.05	1.191
312.26	1.211
312.47	1.225
312.68	1.202
312.89	1.185
313.10	1.189
313.31	1.163
313.52	1.167
313.73	1.168
313.94	1.168
314.15	1.150
314.36	1.130
314.57	1.121
314.78	1.106
314.99	1.102
315.21	1.092
315.42	1.097
315.63	1.108
315.84	1.085
316.05	1.072
316.26	1.078
316.47	1.094
316.68	1.092
316.89	1.075
317.10	1.096
317.31	1.099
317.52	1.101
317.73	1.084
317.94	1.080
318.15	1.119
318.36	1.120
318.57	1.108
318.78	1.097
318.99	1.127
319.20	1.127
319.41	1.094
319.62	1.097
319.83	1.110
320.04	1.105
320.25	1.093
320.46	1.062
320.67	1.064
320.88	1.058
321.09	1.046
321.30	1.032
321.51	1.046
321.72	1.045
321.93	1.030
322.14	1.021
322.35	1.047
322.56	1.051
322.77	1.039
322.98	1.049
323.19	1.056
323.40	1.062
323.61	1.043
323.82	1.036
324.03	1.041
324.24	1.040
324.45	1.029
324.66	1.008
324.87	1.002
325.08	1.003
325.29	0.985
325.50	0.978
325.71	0.982
325.92	0.991
326.13	0.978
326.34	0.978
326.55	0.983
326.76	0.981
326.97	0.971
327.18	0.966
327.39	0.987
327.60	0.988
327.80	0.989
328.01	0.987
328.22	0.984
328.43	0.987
328.64	0.977
328.85	0.980
329.06	0.982
329.27	0.983
329.48	0.980
329.69	0.961
329.90	0.970
330.11	0.964
330.32	0.959
330.53	0.953
330.74	0.951
330.95	0.950
331.16	0.937
331.37	0.944
331.58	0.944
331.79	0.943
332.00	0.936
332.21	0.929
332.42	0.931
332.63	0.923
332.83	0.920
333.04	0.923
333.25	0.934
333.46	0.933
333.67	0.920
333.88	0.922
334.09	0.933
334.30	0.929
334.51	0.922
334.72	0.919
334.93	0.920
335.14	0.920
335.35	0.912
335.56	0.907
335.77	0.915
335.98	0.914
336.18	0.908
336.39	0.899
336.60	0.903
336.81	0.901
337.02	0.900
337.23	0.905
337.44	0.907
337.65	0.910
337.86	0.900
338.07	0.896
338.28	0.898
338.49	0.897
338.70	0.891
338.91	0.897
339.11	0.904
339.32	0.901
339.53	0.890
339.74	0.888
339.95	0.883
340.16	0.881
340.37	0.874
340.58	0.873
340.79	0.874
341.00	0.875
341.21	0.865
341.41	0.864
341.62	0.865
341.83	0.867
342.04	0.862
342.25	0.874
342.46	0.878
342.67	0.876
342.88	0.870
343.09	0.869
343.30	0.876
343.50	0.880
343.71	0.871
343.92	0.869
344.13	0.873
344.34	0.872
344.55	0.855
344.76	0.854
344.97	0.858
345.18	0.857
345.38	0.856
345.59	0.850
345.80	0.848
346.01	0.847
346.22	0.843
346.43	0.836
346.64	0.843
346.85	0.843
347.06	0.837
347.26	0.837
347.47	0.840
347.68	0.836
347.89	0.832
348.10	0.828
348.31	0.833
348.52	0.832
348.73	0.830
348.93	0.828
349.14	0.829
349.35	0.829
349.56	0.824
349.77	0.820
349.98	0.824
350.19	0.821
350.39	0.817
350.60	0.811
350.81	0.826
351.02	0.826
351.23	0.820
351.44	0.823
351.65	0.826
351.86	0.823
352.06	0.822
352.27	0.822
352.48	0.823
352.69	0.822
352.90	0.817
353.11	0.805
353.31	0.812
353.52	0.808
353.73	0.800
353.94	0.801
354.15	0.807
354.36	0.807
354.57	0.798
354.77	0.801
354.98	0.800
355.19	0.799
355.40	0.800
355.61	0.805
355.82	0.809
356.02	0.808
356.23	0.800
356.44	0.802
356.65	0.804
356.86	0.804
357.07	0.799
357.27	0.803
357.48	0.805
357.69	0.799
357.90	0.785
358.11	0.781
358.32	0.784
358.52	0.787
358.73	0.779
358.94	0.781
359.15	0.786
359.36	0.786
359.56	0.782
359.77	0.779
359.98	0.785
360.19	0.784
360.40	0.783
360.61	0.784
360.81	0.782
361.02	0.782
361.23	0.774
361.44	0.772
361.65	0.772
361.85	0.770
362.06	0.769
362.27	0.771
362.48	0.770
362.69	0.772
362.89	0.766
363.10	0.767
363.31	0.771
363.52	0.774
363.73	0.770
363.93	0.771
364.14	0.773
364.35	0.774
364.56	0.766
364.77	0.768
364.97	0.770
365.18	0.770
365.39	0.765
365.60	0.762
365.81	0.762
366.01	0.762
366.22	0.759
366.43	0.758
366.64	0.759
366.84	0.764
367.05	0.761
367.26	0.760
367.47	0.761
367.68	0.762
367.88	0.759
368.09	0.757
368.30	0.759
368.51	0.758
368.71	0.758
368.92	0.763
369.13	0.759
369.34	0.759
369.55	0.758
369.75	0.758
369.96	0.764
370.17	0.764
370.38	0.762
370.58	0.761
370.79	0.766
371.00	0.765
371.21	0.757
371.41	0.764
371.62	0.767
371.83	0.763
372.04	0.761
372.24	0.754
372.45	0.755
372.66	0.754
372.87	0.752
373.07	0.749
373.28	0.749
373.49	0.752
373.70	0.743
373.90	0.742
374.11	0.751
374.32	0.749
374.53	0.750
374.73	0.750
374.94	0.752
375.15	0.752
375.36	0.750
375.56	0.758
375.77	0.757
375.98	0.758
376.19	0.756
376.39	0.750
376.60	0.753
376.81	0.752
377.02	0.751
377.22	0.750
377.43	0.750
377.64	0.749
377.84	0.741
378.05	0.746
378.26	0.752
378.47	0.750
378.67	0.748
378.88	0.746
379.09	0.747
379.30	0.747
379.50	0.745
379.71	0.747
379.92	0.749
380.12	0.749
380.33	0.741
380.54	0.737
380.75	0.744
380.95	0.744
381.16	0.742
381.37	0.742
381.57	0.744
381.78	0.744
381.99	0.744
382.20	0.745
382.40	0.747
382.61	0.748
382.82	0.745
383.02	0.739
383.23	0.741
383.44	0.742
383.64	0.740
383.85	0.743
384.06	0.745
384.27	0.743
384.47	0.741
384.68	0.741
384.89	0.746
385.09	0.746
385.30	0.745
385.51	0.745
385.71	0.747
385.92	0.748
386.13	0.746
386.33	0.749
386.54	0.749
386.75	0.749
386.95	0.746
387.16	0.742
387.37	0.744
387.58	0.744
387.78	0.743
387.99	0.741
388.20	0.743
388.40	0.740
388.61	0.736
388.82	0.739
389.02	0.741
389.23	0.741
389.44	0.740
389.64	0.740
389.85	0.751
390.06	0.751
390.26	0.752
390.47	0.751
390.68	0.753
390.88	0.752
391.09	0.747
391.30	0.747
391.50	0.746
391.71	0.746
391.92	0.743
392.12	0.735
392.33	0.735
392.53	0.735
392.74	0.735
392.95	0.734
393.15	0.736
393.36	0.739
393.57	0.736
393.77	0.739
393.98	0.741
394.19	0.741
394.39	0.741
394.60	0.742
394.81	0.744
395.01	0.743
395.22	0.742
395.43	0.743
395.63	0.748
395.84	0.749
396.04	0.746
396.25	0.749
396.46	0.750
396.66	0.749
396.87	0.747
397.08	0.744
397.28	0.746
397.49	0.747
397.69	0.744
397.90	0.739
398.11	0.740
398.31	0.741
398.52	0.737
398.73	0.739
398.93	0.738
399.14	0.737
399.34	0.736
399.55	0.736
399.76	0.736
399.96	0.737
400.17	0.736
400.37	0.734
400.58	0.741
400.79	0.742
400.99	0.739
401.20	0.745
401.41	0.746
401.61	0.747
401.82	0.753
402.02	0.753
402.23	0.754
402.44	0.754
402.64	0.754
402.85	0.748
403.05	0.746
403.26	0.745
403.47	0.740
403.67	0.738
403.88	0.739
404.08	0.733
404.29	0.732
404.50	0.731
404.70	0.731
404.91	0.731
405.11	0.729
405.32	0.730
405.52	0.730
405.73	0.729
405.94	0.728
406.14	0.731
406.35	0.733
406.55	0.733
406.76	0.731
406.97	0.732
407.17	0.735
407.38	0.735
407.58	0.734
407.79	0.736
407.99	0.739
408.20	0.739
408.41	0.735
408.61	0.733
408.82	0.734
409.02	0.734
409.23	0.731
409.43	0.730
409.64	0.731
409.84	0.731
410.05	0.728
410.26	0.726
410.46	0.725
410.67	0.726
410.87	0.727
411.08	0.729
411.28	0.730
411.49	0.732
411.69	0.730
411.90	0.732
412.11	0.732
412.31	0.733
412.52	0.732
412.72	0.733
412.93	0.733
413.13	0.732
413.34	0.729
413.54	0.731
413.75	0.732
413.95	0.732
414.16	0.728
414.37	0.730
414.57	0.730
414.78	0.733
414.98	0.732
415.19	0.733
415.39	0.730
415.60	0.732
415.80	0.731
416.01	0.730
416.21	0.731
416.42	0.731
416.62	0.727
416.83	0.727
417.03	0.726
417.24	0.725
417.44	0.724
417.65	0.723
417.86	0.723
418.06	0.721
418.27	0.718
418.47	0.721
418.68	0.721
418.88	0.722
419.09	0.721
419.29	0.722
419.50	0.722
419.70	0.722
419.91	0.721
420.11	0.719
420.32	0.721
420.52	0.721
420.73	0.720
420.93	0.721
421.14	0.722
421.34	0.721
421.55	0.718
421.75	0.717
421.96	0.717
422.16	0.718
422.37	0.716
422.57	0.713
422.78	0.715
422.98	0.712
423.19	0.710
423.39	0.708
423.60	0.711
423.80	0.712
424.01	0.710
424.21	0.713
424.42	0.714
424.62	0.714
424.83	0.713
425.03	0.713
425.23	0.715
425.44	0.715
425.64	0.716
425.85	0.714
426.05	0.715
426.26	0.715
426.46	0.712
426.67	0.711
426.87	0.716
427.08	0.716
427.28	0.715
427.49	0.715
427.69	0.716
427.90	0.715
428.10	0.713
428.31	0.712
428.51	0.715
428.71	0.714
428.92	0.715
429.12	0.712
429.33	0.712
429.53	0.716
429.74	0.720
429.94	0.720
430.15	0.719
430.35	0.719
430.56	0.716
430.76	0.715
430.96	0.715
431.17	0.712
431.37	0.710
431.58	0.708
431.78	0.705
431.99	0.697
432.19	0.700
432.40	0.702
432.60	0.702
432.80	0.704
433.01	0.703
433.21	0.703
433.42	0.705
433.62	0.705
433.83	0.705
434.03	0.707
434.23	0.709
434.44	0.708
434.64	0.705
434.85	0.710
435.05	0.711
435.26	0.711
435.46	0.710
435.66	0.710
435.87	0.710
436.07	0.709
436.28	0.706
436.48	0.703
436.69	0.702
436.89	0.703
437.09	0.697
437.30	0.695
437.50	0.695
437.71	0.706
437.91	0.705
438.11	0.706
438.32	0.710
438.52	0.711
438.73	0.710
438.93	0.708
439.13	0.707
439.34	0.711
439.54	0.709
439.75	0.709
439.95	0.699
440.15	0.703
440.36	0.701
440.56	0.699
440.77	0.700
440.97	0.699
441.17	0.698
441.38	0.699
441.58	0.696
441.79	0.696
441.99	0.694
442.19	0.693
442.40	0.690
442.60	0.690
442.81	0.688
443.01	0.688
443.21	0.688
443.42	0.687
443.62	0.686
443.82	0.685
444.03	0.686
444.23	0.686
444.44	0.687
444.64	0.686
444.84	0.687
445.05	0.687
445.25	0.685
445.45	0.685
445.66	0.687
445.86	0.686
446.06	0.688
446.27	0.687
446.47	0.690
446.68	0.688
446.88	0.686
447.08	0.685
447.29	0.687
447.49	0.687
447.69	0.687
447.90	0.685
448.10	0.689
448.30	0.686
448.51	0.688
448.71	0.685
448.91	0.687
449.12	0.686
449.32	0.687
449.52	0.686
449.73	0.690
449.93	0.689
450.14	0.690
450.34	0.689
450.54	0.691
450.75	0.688
450.95	0.688
451.15	0.688
451.36	0.692
451.56	0.688
451.76	0.688
451.97	0.684
452.17	0.684
452.37	0.682
452.58	0.679
452.78	0.679
452.98	0.681
453.19	0.680
453.39	0.680
453.59	0.678
453.79	0.678
454.00	0.678
454.20	0.677
454.40	0.678
454.61	0.680
454.81	0.680
455.01	0.678
455.22	0.679
455.42	0.680
455.62	0.678
455.83	0.678
456.03	0.681
456.23	0.682
456.44	0.682
456.64	0.682
456.84	0.682
457.04	0.682
457.25	0.682
457.45	0.678
457.65	0.677
457.86	0.678
458.06	0.677
458.26	0.673
458.47	0.672
458.67	0.673
458.87	0.672
459.07	0.670
459.28	0.672
459.48	0.674
459.68	0.674
459.89	0.673
