SpectraSuite Data File
++++++++++++++++++++++++++++++++++++
Date: Fri Jun 19 13:30:55 CEST 2015
User: introlabs
Dark Spectrum Present: Yes
Reference Spectrum Present: Yes
Number of Sampled Component Spectra: 1
Spectrometers: USB4H08886
Integration Time (usec): 745692 (USB4H08886)
Spectra Averaged: 5 (USB4H08886)
Boxcar Smoothing: 5 (USB4H08886)
Correct for Electrical Dark: Yes (USB4H08886)
Strobe/Lamp Enabled: No (USB4H08886)
Correct for Detector Non-linearity: Yes (USB4H08886)
Correct for Stray Light: Yes (USB4H08886)
Number of Pixels in Processed Spectrum: 3648
>>>>>Begin Processed Spectral Data<<<<<
178.14	-0.000
178.36	-0.000
178.57	-0.000
178.79	-0.000
179.01	-0.000
179.22	-0.000
179.44	-0.000
179.65	-0.000
179.87	-0.000
180.08	-0.000
180.30	-0.000
180.52	-0.000
180.73	-0.000
180.95	-0.000
181.16	-0.000
181.38	-0.000
181.59	-0.000
181.81	-0.000
182.03	-0.000
182.24	-0.000
182.46	-0.000
182.67	-0.000
182.89	-0.000
183.10	-0.000
183.32	-0.000
183.54	-0.000
183.75	-0.000
183.97	-0.000
184.18	-0.000
184.40	-0.000
184.61	-0.000
184.83	-0.000
185.04	-0.000
185.26	-0.000
185.48	-0.000
185.69	-0.000
185.91	-0.000
186.12	-0.000
186.34	-0.000
186.55	-0.000
186.77	-0.000
186.98	-0.000
187.20	-0.000
187.42	-0.000
187.63	-0.000
187.85	-0.000
188.06	-0.000
188.28	-0.000
188.49	-0.000
188.71	-0.000
188.92	-0.000
189.14	-0.000
189.36	-0.000
189.57	-0.000
189.79	-0.000
190.00	-0.000
190.22	-0.000
190.43	-0.000
190.65	-0.000
190.86	-0.000
191.08	-0.000
191.29	-0.000
191.51	-0.000
191.72	-0.000
191.94	-0.000
192.16	-0.000
192.37	-0.000
192.59	-0.000
192.80	-0.000
193.02	-0.000
193.23	-0.000
193.45	-0.000
193.66	-0.000
193.88	-0.000
194.09	-0.000
194.31	-0.000
194.52	-0.000
194.74	-0.000
194.95	-0.000
195.17	-0.000
195.38	-0.000
195.60	-0.000
195.81	-0.000
196.03	-0.000
196.25	-0.000
196.46	-0.000
196.68	-0.000
196.89	-0.000
197.11	-0.000
197.32	-0.000
197.54	-0.000
197.75	-0.000
197.97	-0.000
198.18	-0.000
198.40	-0.000
198.61	-0.000
198.83	-0.000
199.04	-0.000
199.26	-0.000
199.47	-0.000
199.69	-0.000
199.90	-0.000
200.12	-0.000
200.33	-0.000
200.55	-0.000
200.76	-0.000
200.98	-0.000
201.19	-0.000
201.41	-0.000
201.62	-0.000
201.84	-0.000
202.05	-0.000
202.27	-0.000
202.48	-0.000
202.70	-0.000
202.91	-0.000
203.13	-0.000
203.34	-0.000
203.56	-0.000
203.77	-0.000
203.99	-0.000
204.20	-0.000
204.42	-0.000
204.63	-0.000
204.85	-0.000
205.06	-0.000
205.28	-0.000
205.49	-0.000
205.71	-0.000
205.92	-0.000
206.14	-0.000
206.35	-0.000
206.56	-0.000
206.78	-0.000
206.99	-0.000
207.21	-0.000
207.42	-0.000
207.64	-0.000
207.85	-0.000
208.07	-0.000
208.28	-0.000
208.50	-0.000
208.71	-0.000
208.93	-0.000
209.14	-0.000
209.36	-0.000
209.57	-0.000
209.79	-0.000
210.00	-0.000
210.22	-0.000
210.43	-0.000
210.64	-0.000
210.86	-0.000
211.07	-0.000
211.29	-0.000
211.50	-0.000
211.72	-0.000
211.93	-0.000
212.15	-0.000
212.36	-0.000
212.58	-0.000
212.79	-0.000
213.01	-0.000
213.22	-0.000
213.43	-0.000
213.65	-0.000
213.86	-0.000
214.08	-0.000
214.29	-0.000
214.51	-0.000
214.72	-0.000
214.94	-0.000
215.15	-0.000
215.36	-0.000
215.58	-0.000
215.79	-0.000
216.01	-0.000
216.22	-0.000
216.44	-0.000
216.65	-0.000
216.87	-0.000
217.08	-0.000
217.29	-0.000
217.51	-0.000
217.72	-0.000
217.94	-0.000
218.15	-0.000
218.37	-0.000
218.58	-0.000
218.80	-0.000
219.01	-0.000
219.22	-0.000
219.44	-0.000
219.65	-0.000
219.87	-0.000
220.08	-0.000
220.30	-0.000
220.51	-0.000
220.72	-0.000
220.94	-0.000
221.15	-0.000
221.37	-0.000
221.58	-0.000
221.79	-0.000
222.01	-0.000
222.22	-0.000
222.44	-0.000
222.65	-0.000
222.87	-0.000
223.08	-0.000
223.29	-0.000
223.51	-0.000
223.72	-0.000
223.94	-0.000
224.15	-0.000
224.36	-0.000
224.58	-0.000
224.79	-0.000
225.01	-0.000
225.22	-0.000
225.44	-0.000
225.65	-0.000
225.86	-0.000
226.08	-0.000
226.29	-0.000
226.51	-0.000
226.72	-0.000
226.93	-0.000
227.15	-0.000
227.36	-0.000
227.58	-0.000
227.79	-0.000
228.00	-0.000
228.22	-0.000
228.43	-0.000
228.65	-0.000
228.86	-0.000
229.07	-0.000
229.29	-0.000
229.50	-0.000
229.72	-0.000
229.93	-0.000
230.14	-0.000
230.36	-0.000
230.57	-0.000
230.78	-0.000
231.00	-0.000
231.21	-0.000
231.43	-0.000
231.64	-0.000
231.85	-0.000
232.07	-0.000
232.28	-0.000
232.50	-0.000
232.71	-0.000
232.92	-0.000
233.14	-0.000
233.35	-0.000
233.56	-0.000
233.78	-0.000
233.99	-0.000
234.21	-0.000
234.42	-0.000
234.63	-0.000
234.85	-0.000
235.06	-0.000
235.27	-0.000
235.49	-0.000
235.70	-0.000
235.91	-0.000
236.13	-0.000
236.34	-0.000
236.56	-0.000
236.77	-0.000
236.98	-0.000
237.20	-0.000
237.41	-0.000
237.62	-0.000
237.84	-0.000
238.05	-0.000
238.26	-0.000
238.48	-0.000
238.69	-0.000
238.91	-0.000
239.12	-0.000
239.33	-0.000
239.55	-0.000
239.76	-0.000
239.97	-0.000
240.19	-0.000
240.40	-0.000
240.61	-0.000
240.83	-0.000
241.04	-0.000
241.25	-0.000
241.47	-0.000
241.68	-0.000
241.89	-0.000
242.11	-0.000
242.32	-0.000
242.53	-0.000
242.75	-0.000
242.96	-0.000
243.17	-0.000
243.39	-0.000
243.60	-0.000
243.81	-0.000
244.03	-0.000
244.24	-0.000
244.45	-0.000
244.67	-0.000
244.88	-0.000
245.09	-0.000
245.31	-0.000
245.52	-0.000
245.73	-0.000
245.95	-0.000
246.16	-0.000
246.37	-0.000
246.59	-0.000
246.80	-0.000
247.01	-0.000
247.23	-0.000
247.44	-0.000
247.65	-0.000
247.87	-0.000
248.08	-0.000
248.29	-0.000
248.51	-0.000
248.72	-0.000
248.93	-0.000
249.15	-0.000
249.36	-0.000
249.57	-0.000
249.78	-0.000
250.00	-0.000
250.21	-0.000
250.42	-0.000
250.64	-0.000
250.85	-0.000
251.06	-0.000
251.28	-0.000
251.49	-0.000
251.70	-0.000
251.92	-0.000
252.13	-0.000
252.34	-0.000
252.55	-0.000
252.77	-0.000
252.98	-0.000
253.19	-0.000
253.41	-0.000
253.62	-0.000
253.83	-0.000
254.05	-0.000
254.26	-0.000
254.47	-0.000
254.68	-0.000
254.90	-0.000
255.11	-0.000
255.32	-0.000
255.54	-0.000
255.75	-0.000
255.96	-0.000
256.17	-0.000
256.39	-0.000
256.60	-0.000
256.81	-0.000
257.03	-0.000
257.24	-0.000
257.45	-0.000
257.66	-0.000
257.88	-0.000
258.09	-0.000
258.30	-0.000
258.51	-0.000
258.73	-0.000
258.94	-0.000
259.15	-0.000
259.37	-0.000
259.58	-0.000
259.79	-0.000
260.00	-0.000
260.22	-0.000
260.43	-0.000
260.64	-0.000
260.85	-0.000
261.07	-0.000
261.28	-0.000
261.49	-0.000
261.71	-0.000
261.92	-0.000
262.13	-0.000
262.34	-0.000
262.56	-0.000
262.77	-0.000
262.98	-0.000
263.19	-0.000
263.41	-0.000
263.62	-0.000
263.83	-0.000
264.04	-0.000
264.26	-0.000
264.47	-0.000
264.68	-0.000
264.89	-0.000
265.11	-0.000
265.32	-0.000
265.53	-0.000
265.74	-0.000
265.96	-0.000
266.17	-0.000
266.38	-0.000
266.59	-0.000
266.81	-0.000
267.02	-0.000
267.23	-0.000
267.44	-0.000
267.65	-0.000
267.87	-0.000
268.08	-0.000
268.29	-0.000
268.50	-0.000
268.72	-0.000
268.93	-0.000
269.14	-0.000
269.35	-0.000
269.57	-0.000
269.78	-0.000
269.99	-0.000
270.20	-0.000
270.41	-0.000
270.63	-0.000
270.84	-0.000
271.05	-0.000
271.26	-0.000
271.48	-0.000
271.69	-0.000
271.90	-0.000
272.11	-0.000
272.32	-0.000
272.54	-0.000
272.75	-0.000
272.96	-0.000
273.17	-0.000
273.39	-0.000
273.60	-0.000
273.81	-0.000
274.02	-0.000
274.23	-0.000
274.45	-0.000
274.66	-0.000
274.87	-0.000
275.08	-0.000
275.29	-0.000
275.51	-0.000
275.72	-0.000
275.93	-0.000
276.14	-0.000
276.35	-0.000
276.57	-0.000
276.78	-0.000
276.99	-0.000
277.20	-0.000
277.41	-0.000
277.63	-0.000
277.84	-0.000
278.05	-0.000
278.26	-0.000
278.47	-0.000
278.69	-0.000
278.90	-0.000
279.11	-0.000
279.32	-0.000
279.53	-0.000
279.74	-0.000
279.96	-0.000
280.17	-0.000
280.38	-0.000
280.59	-0.000
280.80	-0.000
281.02	-0.000
281.23	-0.000
281.44	-0.000
281.65	-0.000
281.86	-0.000
282.07	-0.000
282.29	-0.000
282.50	-0.000
282.71	-0.000
282.92	-0.000
283.13	-0.000
283.35	-0.000
283.56	-0.000
283.77	-0.000
283.98	-0.000
284.19	-0.000
284.40	-0.000
284.62	-0.000
284.83	-0.000
285.04	-0.000
285.25	-0.000
285.46	-0.000
285.67	-0.000
285.88	-0.000
286.10	-0.000
286.31	-0.000
286.52	-0.000
286.73	-0.000
286.94	-0.000
287.15	-0.000
287.37	-0.000
287.58	-0.000
287.79	-0.000
288.00	-0.000
288.21	-0.000
288.42	-0.000
288.63	-0.000
288.85	-0.000
289.06	-0.000
289.27	-0.000
289.48	-0.000
289.69	-0.000
289.90	-0.000
290.11	-0.000
290.33	-0.000
290.54	-0.000
290.75	-0.000
290.96	-0.000
291.17	-0.000
291.38	-0.000
291.59	-0.000
291.81	-0.000
292.02	-0.000
292.23	-0.000
292.44	-0.000
292.65	-0.000
292.86	-0.000
293.07	-0.000
293.28	-0.000
293.50	-0.000
293.71	-0.000
293.92	-0.000
294.13	-0.000
294.34	-0.000
294.55	-0.000
294.76	-0.000
294.97	-0.000
295.19	-0.000
295.40	-0.000
295.61	-0.000
295.82	-0.000
296.03	-0.000
296.24	-0.000
296.45	-0.000
296.66	-0.000
296.87	-0.000
297.09	-0.000
297.30	-0.000
297.51	2.561
297.72	2.334
297.93	3.526
298.14	2.745
298.35	2.392
298.56	2.253
298.77	4.313
298.99	2.947
299.20	2.563
299.41	2.374
299.62	2.207
299.83	2.151
300.04	1.950
300.25	1.925
300.46	2.031
300.67	1.960
300.88	1.836
301.10	1.837
301.31	1.988
301.52	1.848
301.73	1.743
301.94	1.742
302.15	1.768
302.36	1.691
302.57	1.588
302.78	1.596
302.99	1.668
303.20	1.695
303.41	1.548
303.63	1.524
303.84	1.534
304.05	1.525
304.26	1.439
304.47	1.447
304.68	1.448
304.89	1.430
305.10	1.375
305.31	1.353
305.52	1.410
305.73	1.409
305.94	1.357
306.15	1.344
306.37	1.375
306.58	1.387
306.79	1.348
307.00	1.372
307.21	1.426
307.42	1.419
307.63	1.375
307.84	1.328
308.05	1.370
308.26	1.369
308.47	1.343
308.68	1.337
308.89	1.336
309.10	1.330
309.31	1.284
309.52	1.274
309.73	1.290
309.95	1.284
310.16	1.251
310.37	1.238
310.58	1.260
310.79	1.257
311.00	1.249
311.21	1.251
311.42	1.252
311.63	1.246
311.84	1.220
312.05	1.218
312.26	1.244
312.47	1.256
312.68	1.227
312.89	1.208
313.10	1.217
313.31	1.186
313.52	1.186
313.73	1.189
313.94	1.195
314.15	1.177
314.36	1.151
314.57	1.141
314.78	1.127
314.99	1.121
315.21	1.106
315.42	1.111
315.63	1.126
315.84	1.101
316.05	1.084
316.26	1.090
316.47	1.109
316.68	1.105
316.89	1.084
317.10	1.109
317.31	1.114
317.52	1.117
317.73	1.091
317.94	1.090
318.15	1.138
318.36	1.137
318.57	1.118
318.78	1.108
318.99	1.148
319.20	1.144
319.41	1.103
319.62	1.106
319.83	1.120
320.04	1.114
320.25	1.099
320.46	1.062
320.67	1.067
320.88	1.064
321.09	1.048
321.30	1.032
321.51	1.050
321.72	1.049
321.93	1.031
322.14	1.021
322.35	1.051
322.56	1.053
322.77	1.037
322.98	1.047
323.19	1.054
323.40	1.060
323.61	1.037
323.82	1.029
324.03	1.035
324.24	1.033
324.45	1.019
324.66	0.998
324.87	0.995
325.08	0.995
325.29	0.976
325.50	0.970
325.71	0.975
325.92	0.983
326.13	0.969
326.34	0.972
326.55	0.981
326.76	0.980
326.97	0.969
327.18	0.964
327.39	0.993
327.60	0.994
327.80	0.993
328.01	0.989
328.22	0.989
328.43	0.992
328.64	0.978
328.85	0.982
329.06	0.985
329.27	0.984
329.48	0.978
329.69	0.955
329.90	0.966
330.11	0.958
330.32	0.951
330.53	0.946
330.74	0.944
330.95	0.941
331.16	0.925
331.37	0.932
331.58	0.933
331.79	0.932
332.00	0.922
332.21	0.915
332.42	0.920
332.63	0.911
332.83	0.906
333.04	0.909
333.25	0.924
333.46	0.921
333.67	0.906
333.88	0.909
334.09	0.920
334.30	0.918
334.51	0.908
334.72	0.903
334.93	0.907
335.14	0.905
335.35	0.897
335.56	0.892
335.77	0.902
335.98	0.901
336.18	0.892
336.39	0.886
336.60	0.890
336.81	0.888
337.02	0.887
337.23	0.891
337.44	0.894
337.65	0.895
337.86	0.885
338.07	0.879
338.28	0.885
338.49	0.883
338.70	0.875
338.91	0.881
339.11	0.889
339.32	0.885
339.53	0.873
339.74	0.870
339.95	0.867
340.16	0.866
340.37	0.858
340.58	0.855
340.79	0.858
341.00	0.858
341.21	0.847
341.41	0.848
341.62	0.849
341.83	0.850
342.04	0.846
342.25	0.858
342.46	0.863
342.67	0.860
342.88	0.854
343.09	0.854
343.30	0.862
343.50	0.865
343.71	0.855
343.92	0.854
344.13	0.858
344.34	0.857
344.55	0.839
344.76	0.837
344.97	0.843
345.18	0.840
345.38	0.837
345.59	0.832
345.80	0.833
346.01	0.830
346.22	0.825
346.43	0.820
346.64	0.828
346.85	0.828
347.06	0.821
347.26	0.821
347.47	0.826
347.68	0.821
347.89	0.816
348.10	0.811
348.31	0.819
348.52	0.817
348.73	0.813
348.93	0.810
349.14	0.813
349.35	0.813
349.56	0.807
349.77	0.802
349.98	0.809
350.19	0.805
350.39	0.801
350.60	0.796
350.81	0.813
351.02	0.813
351.23	0.808
351.44	0.810
351.65	0.814
351.86	0.811
352.06	0.810
352.27	0.809
352.48	0.811
352.69	0.810
352.90	0.804
353.11	0.791
353.31	0.798
353.52	0.794
353.73	0.785
353.94	0.786
354.15	0.792
354.36	0.791
354.57	0.782
354.77	0.785
354.98	0.785
355.19	0.784
355.40	0.783
355.61	0.789
355.82	0.793
356.02	0.793
356.23	0.785
356.44	0.787
356.65	0.792
356.86	0.792
357.07	0.785
357.27	0.788
357.48	0.792
357.69	0.787
357.90	0.771
358.11	0.768
358.32	0.772
358.52	0.775
358.73	0.765
358.94	0.767
359.15	0.773
359.36	0.773
359.56	0.768
359.77	0.765
359.98	0.772
360.19	0.772
360.40	0.768
360.61	0.769
360.81	0.768
361.02	0.769
361.23	0.761
361.44	0.759
361.65	0.759
361.85	0.759
362.06	0.756
362.27	0.759
362.48	0.759
362.69	0.762
362.89	0.755
363.10	0.757
363.31	0.761
363.52	0.764
363.73	0.760
363.93	0.760
364.14	0.763
364.35	0.765
364.56	0.753
364.77	0.755
364.97	0.757
365.18	0.758
365.39	0.752
365.60	0.749
365.81	0.749
366.01	0.749
366.22	0.746
366.43	0.745
366.64	0.747
366.84	0.753
367.05	0.749
367.26	0.749
367.47	0.751
367.68	0.751
367.88	0.747
368.09	0.745
368.30	0.748
368.51	0.747
368.71	0.746
368.92	0.750
369.13	0.748
369.34	0.747
369.55	0.746
369.75	0.747
369.96	0.755
370.17	0.755
370.38	0.752
370.58	0.751
370.79	0.757
371.00	0.756
371.21	0.747
371.41	0.753
371.62	0.757
371.83	0.753
372.04	0.749
372.24	0.742
372.45	0.743
372.66	0.743
372.87	0.740
373.07	0.736
373.28	0.737
373.49	0.741
373.70	0.730
373.90	0.730
374.11	0.739
374.32	0.738
374.53	0.737
374.73	0.738
374.94	0.741
375.15	0.741
375.36	0.738
375.56	0.746
375.77	0.745
375.98	0.746
376.19	0.743
376.39	0.736
376.60	0.740
376.81	0.741
377.02	0.738
377.22	0.737
377.43	0.737
377.64	0.737
377.84	0.728
378.05	0.733
378.26	0.739
378.47	0.738
378.67	0.734
378.88	0.732
379.09	0.732
379.30	0.732
379.50	0.729
379.71	0.731
379.92	0.735
380.12	0.735
380.33	0.726
380.54	0.722
380.75	0.729
380.95	0.729
381.16	0.726
381.37	0.727
381.57	0.729
381.78	0.730
381.99	0.730
382.20	0.729
382.40	0.732
382.61	0.732
382.82	0.728
383.02	0.722
383.23	0.726
383.44	0.727
383.64	0.725
383.85	0.727
384.06	0.730
384.27	0.728
384.47	0.724
384.68	0.725
384.89	0.730
385.09	0.730
385.30	0.729
385.51	0.727
385.71	0.730
385.92	0.730
386.13	0.729
386.33	0.730
386.54	0.731
386.75	0.730
386.95	0.726
387.16	0.722
387.37	0.725
387.58	0.724
387.78	0.722
387.99	0.720
388.20	0.722
388.40	0.719
388.61	0.715
388.82	0.718
389.02	0.721
389.23	0.721
389.44	0.718
389.64	0.719
389.85	0.730
390.06	0.730
390.26	0.730
390.47	0.729
390.68	0.732
390.88	0.730
391.09	0.725
391.30	0.724
391.50	0.724
391.71	0.724
391.92	0.721
392.12	0.713
392.33	0.713
392.53	0.713
392.74	0.713
392.95	0.712
393.15	0.715
393.36	0.716
393.57	0.714
393.77	0.717
393.98	0.718
394.19	0.717
394.39	0.717
394.60	0.719
394.81	0.720
395.01	0.719
395.22	0.717
395.43	0.718
395.63	0.722
395.84	0.723
396.04	0.719
396.25	0.721
396.46	0.724
396.66	0.721
396.87	0.718
397.08	0.715
397.28	0.717
397.49	0.718
397.69	0.714
397.90	0.709
398.11	0.710
398.31	0.711
398.52	0.707
398.73	0.708
398.93	0.708
399.14	0.706
399.34	0.706
399.55	0.707
399.76	0.708
399.96	0.709
400.17	0.707
400.37	0.705
400.58	0.712
400.79	0.714
400.99	0.711
401.20	0.717
401.41	0.719
401.61	0.720
401.82	0.725
402.02	0.725
402.23	0.726
402.44	0.725
402.64	0.725
402.85	0.719
403.05	0.718
403.26	0.717
403.47	0.709
403.67	0.708
403.88	0.710
404.08	0.703
404.29	0.701
404.50	0.700
404.70	0.701
404.91	0.700
405.11	0.697
405.32	0.698
405.52	0.698
405.73	0.698
405.94	0.696
406.14	0.698
406.35	0.701
406.55	0.700
406.76	0.698
406.97	0.699
407.17	0.701
407.38	0.701
407.58	0.699
407.79	0.701
407.99	0.704
408.20	0.705
408.41	0.700
408.61	0.698
408.82	0.699
409.02	0.699
409.23	0.696
409.43	0.696
409.64	0.697
409.84	0.697
410.05	0.693
410.26	0.691
410.46	0.690
410.67	0.690
410.87	0.691
411.08	0.694
411.28	0.695
411.49	0.697
411.69	0.695
411.90	0.696
412.11	0.698
412.31	0.699
412.52	0.697
412.72	0.698
412.93	0.699
413.13	0.698
413.34	0.693
413.54	0.694
413.75	0.696
413.95	0.695
414.16	0.692
414.37	0.695
414.57	0.695
414.78	0.698
414.98	0.696
415.19	0.697
415.39	0.695
415.60	0.698
415.80	0.697
416.01	0.696
416.21	0.698
416.42	0.698
416.62	0.693
416.83	0.693
417.03	0.692
417.24	0.693
417.44	0.690
417.65	0.689
417.86	0.689
418.06	0.687
418.27	0.684
418.47	0.686
418.68	0.687
418.88	0.688
419.09	0.686
419.29	0.686
419.50	0.687
419.70	0.686
419.91	0.685
420.11	0.682
420.32	0.685
420.52	0.686
420.73	0.684
420.93	0.685
421.14	0.686
421.34	0.685
421.55	0.682
421.75	0.682
421.96	0.683
422.16	0.683
422.37	0.683
422.57	0.679
422.78	0.681
422.98	0.678
423.19	0.676
423.39	0.674
423.60	0.677
423.80	0.679
424.01	0.678
424.21	0.681
424.42	0.682
424.62	0.682
424.83	0.681
425.03	0.681
425.23	0.684
425.44	0.684
425.64	0.684
425.85	0.683
426.05	0.684
426.26	0.684
426.46	0.679
426.67	0.679
426.87	0.683
427.08	0.684
427.28	0.682
427.49	0.683
427.69	0.683
427.90	0.682
428.10	0.678
428.31	0.678
428.51	0.680
428.71	0.680
428.92	0.681
429.12	0.679
429.33	0.680
429.53	0.684
429.74	0.687
429.94	0.688
430.15	0.687
430.35	0.688
430.56	0.686
430.76	0.685
430.96	0.685
431.17	0.683
431.37	0.679
431.58	0.677
431.78	0.674
431.99	0.668
432.19	0.669
432.40	0.671
432.60	0.671
432.80	0.674
433.01	0.672
433.21	0.672
433.42	0.675
433.62	0.675
433.83	0.676
434.03	0.678
434.23	0.681
434.44	0.680
434.64	0.678
434.85	0.683
435.05	0.684
435.26	0.685
435.46	0.683
435.66	0.683
435.87	0.683
436.07	0.683
436.28	0.679
436.48	0.676
436.69	0.675
436.89	0.675
437.09	0.669
437.30	0.668
437.50	0.669
437.71	0.681
437.91	0.680
438.11	0.680
438.32	0.684
438.52	0.685
438.73	0.683
438.93	0.682
439.13	0.682
439.34	0.686
439.54	0.683
439.75	0.683
439.95	0.673
440.15	0.678
440.36	0.677
440.56	0.674
440.77	0.676
440.97	0.676
441.17	0.674
441.38	0.675
441.58	0.673
441.79	0.672
441.99	0.670
442.19	0.669
442.40	0.667
442.60	0.667
442.81	0.665
443.01	0.665
443.21	0.665
443.42	0.665
443.62	0.664
443.82	0.664
444.03	0.666
444.23	0.666
444.44	0.665
444.64	0.665
444.84	0.667
445.05	0.666
445.25	0.664
445.45	0.664
445.66	0.667
445.86	0.666
446.06	0.667
446.27	0.666
446.47	0.669
446.68	0.668
446.88	0.666
447.08	0.665
447.29	0.668
447.49	0.668
447.69	0.668
447.90	0.666
448.10	0.670
448.30	0.667
448.51	0.669
448.71	0.667
448.91	0.669
449.12	0.668
449.32	0.669
449.52	0.668
449.73	0.673
449.93	0.671
450.14	0.672
450.34	0.671
450.54	0.674
450.75	0.670
450.95	0.669
451.15	0.669
451.36	0.671
451.56	0.668
451.76	0.667
451.97	0.665
452.17	0.665
452.37	0.663
452.58	0.660
452.78	0.659
452.98	0.661
453.19	0.661
453.39	0.662
453.59	0.661
453.79	0.662
454.00	0.662
454.20	0.661
454.40	0.661
454.61	0.663
454.81	0.664
455.01	0.662
455.22	0.663
455.42	0.665
455.62	0.663
455.83	0.662
456.03	0.665
456.23	0.666
456.44	0.668
456.64	0.667
456.84	0.667
457.04	0.668
457.25	0.668
457.45	0.665
457.65	0.663
457.86	0.665
458.06	0.664
458.26	0.659
458.47	0.658
458.67	0.658
458.87	0.659
459.07	0.656
459.28	0.658
459.48	0.660
459.68	0.661
