SpectraSuite Data File
++++++++++++++++++++++++++++++++++++
Date: Fri Jun 19 12:29:24 CEST 2015
User: introlabs
Dark Spectrum Present: Yes
Reference Spectrum Present: Yes
Number of Sampled Component Spectra: 1
Spectrometers: USB4H08886
Integration Time (usec): 745692 (USB4H08886)
Spectra Averaged: 5 (USB4H08886)
Boxcar Smoothing: 5 (USB4H08886)
Correct for Electrical Dark: Yes (USB4H08886)
Strobe/Lamp Enabled: No (USB4H08886)
Correct for Detector Non-linearity: Yes (USB4H08886)
Correct for Stray Light: Yes (USB4H08886)
Number of Pixels in Processed Spectrum: 3648
>>>>>Begin Processed Spectral Data<<<<<
178.14	-0.000
178.36	-0.000
178.57	-0.000
178.79	-0.000
179.01	-0.000
179.22	-0.000
179.44	-0.000
179.65	-0.000
179.87	-0.000
180.08	-0.000
180.30	-0.000
180.52	-0.000
180.73	-0.000
180.95	-0.000
181.16	-0.000
181.38	-0.000
181.59	-0.000
181.81	-0.000
182.03	-0.000
182.24	-0.000
182.46	-0.000
182.67	-0.000
182.89	-0.000
183.10	-0.000
183.32	-0.000
183.54	-0.000
183.75	-0.000
183.97	-0.000
184.18	-0.000
184.40	-0.000
184.61	-0.000
184.83	-0.000
185.04	-0.000
185.26	-0.000
185.48	-0.000
185.69	-0.000
185.91	-0.000
186.12	-0.000
186.34	-0.000
186.55	-0.000
186.77	-0.000
186.98	-0.000
187.20	-0.000
187.42	-0.000
187.63	-0.000
187.85	-0.000
188.06	-0.000
188.28	-0.000
188.49	-0.000
188.71	-0.000
188.92	-0.000
189.14	-0.000
189.36	-0.000
189.57	-0.000
189.79	-0.000
190.00	-0.000
190.22	-0.000
190.43	-0.000
190.65	-0.000
190.86	-0.000
191.08	-0.000
191.29	-0.000
191.51	-0.000
191.72	-0.000
191.94	-0.000
192.16	-0.000
192.37	-0.000
192.59	-0.000
192.80	-0.000
193.02	-0.000
193.23	-0.000
193.45	-0.000
193.66	-0.000
193.88	-0.000
194.09	-0.000
194.31	-0.000
194.52	-0.000
194.74	-0.000
194.95	-0.000
195.17	-0.000
195.38	-0.000
195.60	-0.000
195.81	-0.000
196.03	-0.000
196.25	-0.000
196.46	-0.000
196.68	-0.000
196.89	-0.000
197.11	-0.000
197.32	-0.000
197.54	-0.000
197.75	-0.000
197.97	-0.000
198.18	-0.000
198.40	-0.000
198.61	-0.000
198.83	-0.000
199.04	-0.000
199.26	-0.000
199.47	-0.000
199.69	-0.000
199.90	-0.000
200.12	-0.000
200.33	-0.000
200.55	-0.000
200.76	-0.000
200.98	-0.000
201.19	-0.000
201.41	-0.000
201.62	-0.000
201.84	-0.000
202.05	-0.000
202.27	-0.000
202.48	-0.000
202.70	-0.000
202.91	-0.000
203.13	-0.000
203.34	-0.000
203.56	-0.000
203.77	-0.000
203.99	-0.000
204.20	-0.000
204.42	-0.000
204.63	-0.000
204.85	-0.000
205.06	-0.000
205.28	-0.000
205.49	-0.000
205.71	-0.000
205.92	-0.000
206.14	-0.000
206.35	-0.000
206.56	-0.000
206.78	-0.000
206.99	-0.000
207.21	-0.000
207.42	-0.000
207.64	-0.000
207.85	-0.000
208.07	-0.000
208.28	-0.000
208.50	-0.000
208.71	-0.000
208.93	-0.000
209.14	-0.000
209.36	-0.000
209.57	-0.000
209.79	-0.000
210.00	-0.000
210.22	-0.000
210.43	-0.000
210.64	-0.000
210.86	-0.000
211.07	-0.000
211.29	-0.000
211.50	-0.000
211.72	-0.000
211.93	-0.000
212.15	-0.000
212.36	-0.000
212.58	-0.000
212.79	-0.000
213.01	-0.000
213.22	-0.000
213.43	-0.000
213.65	-0.000
213.86	-0.000
214.08	-0.000
214.29	-0.000
214.51	-0.000
214.72	-0.000
214.94	-0.000
215.15	-0.000
215.36	-0.000
215.58	-0.000
215.79	-0.000
216.01	-0.000
216.22	-0.000
216.44	-0.000
216.65	-0.000
216.87	-0.000
217.08	-0.000
217.29	-0.000
217.51	-0.000
217.72	-0.000
217.94	-0.000
218.15	-0.000
218.37	-0.000
218.58	-0.000
218.80	-0.000
219.01	-0.000
219.22	-0.000
219.44	-0.000
219.65	-0.000
219.87	-0.000
220.08	-0.000
220.30	-0.000
220.51	-0.000
220.72	-0.000
220.94	-0.000
221.15	-0.000
221.37	-0.000
221.58	-0.000
221.79	-0.000
222.01	-0.000
222.22	-0.000
222.44	-0.000
222.65	-0.000
222.87	-0.000
223.08	-0.000
223.29	-0.000
223.51	-0.000
223.72	-0.000
223.94	-0.000
224.15	-0.000
224.36	-0.000
224.58	-0.000
224.79	-0.000
225.01	-0.000
225.22	-0.000
225.44	-0.000
225.65	-0.000
225.86	-0.000
226.08	-0.000
226.29	-0.000
226.51	-0.000
226.72	-0.000
226.93	-0.000
227.15	-0.000
227.36	-0.000
227.58	-0.000
227.79	-0.000
228.00	-0.000
228.22	-0.000
228.43	-0.000
228.65	-0.000
228.86	-0.000
229.07	-0.000
229.29	-0.000
229.50	-0.000
229.72	-0.000
229.93	-0.000
230.14	-0.000
230.36	-0.000
230.57	-0.000
230.78	-0.000
231.00	-0.000
231.21	-0.000
231.43	-0.000
231.64	-0.000
231.85	-0.000
232.07	-0.000
232.28	-0.000
232.50	-0.000
232.71	-0.000
232.92	-0.000
233.14	-0.000
233.35	-0.000
233.56	-0.000
233.78	-0.000
233.99	-0.000
234.21	-0.000
234.42	-0.000
234.63	-0.000
234.85	-0.000
235.06	-0.000
235.27	-0.000
235.49	-0.000
235.70	-0.000
235.91	-0.000
236.13	-0.000
236.34	-0.000
236.56	-0.000
236.77	-0.000
236.98	-0.000
237.20	-0.000
237.41	-0.000
237.62	-0.000
237.84	-0.000
238.05	-0.000
238.26	-0.000
238.48	-0.000
238.69	-0.000
238.91	-0.000
239.12	-0.000
239.33	-0.000
239.55	-0.000
239.76	-0.000
239.97	-0.000
240.19	-0.000
240.40	-0.000
240.61	-0.000
240.83	-0.000
241.04	-0.000
241.25	-0.000
241.47	-0.000
241.68	-0.000
241.89	-0.000
242.11	-0.000
242.32	-0.000
242.53	-0.000
242.75	-0.000
242.96	-0.000
243.17	-0.000
243.39	-0.000
243.60	-0.000
243.81	-0.000
244.03	-0.000
244.24	-0.000
244.45	-0.000
244.67	-0.000
244.88	-0.000
245.09	-0.000
245.31	-0.000
245.52	-0.000
245.73	-0.000
245.95	-0.000
246.16	-0.000
246.37	-0.000
246.59	-0.000
246.80	-0.000
247.01	-0.000
247.23	-0.000
247.44	-0.000
247.65	-0.000
247.87	-0.000
248.08	-0.000
248.29	-0.000
248.51	-0.000
248.72	-0.000
248.93	-0.000
249.15	-0.000
249.36	-0.000
249.57	-0.000
249.78	-0.000
250.00	-0.000
250.21	-0.000
250.42	-0.000
250.64	-0.000
250.85	-0.000
251.06	-0.000
251.28	-0.000
251.49	-0.000
251.70	-0.000
251.92	-0.000
252.13	-0.000
252.34	-0.000
252.55	-0.000
252.77	-0.000
252.98	-0.000
253.19	-0.000
253.41	-0.000
253.62	-0.000
253.83	-0.000
254.05	-0.000
254.26	-0.000
254.47	-0.000
254.68	-0.000
254.90	-0.000
255.11	-0.000
255.32	-0.000
255.54	-0.000
255.75	-0.000
255.96	-0.000
256.17	-0.000
256.39	-0.000
256.60	-0.000
256.81	-0.000
257.03	-0.000
257.24	-0.000
257.45	-0.000
257.66	-0.000
257.88	-0.000
258.09	-0.000
258.30	-0.000
258.51	-0.000
258.73	-0.000
258.94	-0.000
259.15	-0.000
259.37	-0.000
259.58	-0.000
259.79	-0.000
260.00	-0.000
260.22	-0.000
260.43	-0.000
260.64	-0.000
260.85	-0.000
261.07	-0.000
261.28	-0.000
261.49	-0.000
261.71	-0.000
261.92	-0.000
262.13	-0.000
262.34	-0.000
262.56	-0.000
262.77	-0.000
262.98	-0.000
263.19	-0.000
263.41	-0.000
263.62	-0.000
263.83	-0.000
264.04	-0.000
264.26	-0.000
264.47	-0.000
264.68	-0.000
264.89	-0.000
265.11	-0.000
265.32	-0.000
265.53	-0.000
265.74	-0.000
265.96	-0.000
266.17	-0.000
266.38	-0.000
266.59	-0.000
266.81	-0.000
267.02	-0.000
267.23	-0.000
267.44	-0.000
267.65	-0.000
267.87	-0.000
268.08	-0.000
268.29	-0.000
268.50	-0.000
268.72	-0.000
268.93	-0.000
269.14	-0.000
269.35	-0.000
269.57	-0.000
269.78	-0.000
269.99	-0.000
270.20	-0.000
270.41	-0.000
270.63	-0.000
270.84	-0.000
271.05	-0.000
271.26	-0.000
271.48	-0.000
271.69	-0.000
271.90	-0.000
272.11	-0.000
272.32	-0.000
272.54	-0.000
272.75	-0.000
272.96	-0.000
273.17	-0.000
273.39	-0.000
273.60	-0.000
273.81	-0.000
274.02	-0.000
274.23	-0.000
274.45	-0.000
274.66	-0.000
274.87	-0.000
275.08	-0.000
275.29	-0.000
275.51	-0.000
275.72	-0.000
275.93	-0.000
276.14	-0.000
276.35	-0.000
276.57	-0.000
276.78	-0.000
276.99	-0.000
277.20	-0.000
277.41	-0.000
277.63	-0.000
277.84	-0.000
278.05	-0.000
278.26	-0.000
278.47	-0.000
278.69	-0.000
278.90	-0.000
279.11	-0.000
279.32	-0.000
279.53	-0.000
279.74	-0.000
279.96	-0.000
280.17	-0.000
280.38	-0.000
280.59	-0.000
280.80	-0.000
281.02	-0.000
281.23	-0.000
281.44	-0.000
281.65	-0.000
281.86	-0.000
282.07	-0.000
282.29	-0.000
282.50	-0.000
282.71	-0.000
282.92	-0.000
283.13	-0.000
283.35	-0.000
283.56	-0.000
283.77	-0.000
283.98	-0.000
284.19	-0.000
284.40	-0.000
284.62	-0.000
284.83	-0.000
285.04	-0.000
285.25	-0.000
285.46	-0.000
285.67	-0.000
285.88	-0.000
286.10	-0.000
286.31	-0.000
286.52	-0.000
286.73	-0.000
286.94	-0.000
287.15	-0.000
287.37	-0.000
287.58	-0.000
287.79	-0.000
288.00	-0.000
288.21	-0.000
288.42	-0.000
288.63	-0.000
288.85	-0.000
289.06	-0.000
289.27	-0.000
289.48	-0.000
289.69	-0.000
289.90	-0.000
290.11	-0.000
290.33	-0.000
290.54	-0.000
290.75	-0.000
290.96	-0.000
291.17	-0.000
291.38	-0.000
291.59	-0.000
291.81	-0.000
292.02	-0.000
292.23	-0.000
292.44	3.034
292.65	2.110
292.86	2.858
293.07	2.482
293.28	1.883
293.50	2.058
293.71	2.445
293.92	2.168
294.13	2.302
294.34	2.402
294.55	2.840
294.76	2.547
294.97	2.070
295.19	2.291
295.40	-0.000
295.61	-0.000
295.82	1.944
296.03	1.799
296.24	1.884
296.45	1.617
296.66	1.450
296.87	1.456
297.09	1.515
297.30	1.594
297.51	1.419
297.72	1.400
297.93	1.468
298.14	1.447
298.35	1.408
298.56	1.385
298.77	1.464
298.99	1.445
299.20	1.418
299.41	1.401
299.62	1.387
299.83	1.376
300.04	1.323
300.25	1.312
300.46	1.342
300.67	1.329
300.88	1.294
301.10	1.293
301.31	1.343
301.52	1.307
301.73	1.263
301.94	1.263
302.15	1.285
302.36	1.257
302.57	1.210
302.78	1.216
302.99	1.245
303.20	1.255
303.41	1.193
303.63	1.178
303.84	1.188
304.05	1.189
304.26	1.142
304.47	1.143
304.68	1.151
304.89	1.145
305.10	1.111
305.31	1.103
305.52	1.134
305.73	1.128
305.94	1.099
306.15	1.094
306.37	1.112
306.58	1.118
306.79	1.093
307.00	1.105
307.21	1.134
307.42	1.130
307.63	1.101
307.84	1.078
308.05	1.107
308.26	1.106
308.47	1.087
308.68	1.084
308.89	1.089
309.10	1.087
309.31	1.054
309.52	1.048
309.73	1.060
309.95	1.054
310.16	1.033
310.37	1.026
310.58	1.040
310.79	1.037
311.00	1.032
311.21	1.029
311.42	1.032
311.63	1.030
311.84	1.013
312.05	1.012
312.26	1.033
312.47	1.042
312.68	1.022
312.89	1.010
313.10	1.018
313.31	0.997
313.52	0.997
313.73	1.000
313.94	1.004
314.15	0.991
314.36	0.970
314.57	0.964
314.78	0.955
314.99	0.950
315.21	0.938
315.42	0.941
315.63	0.954
315.84	0.937
316.05	0.922
316.26	0.929
316.47	0.944
316.68	0.941
316.89	0.923
317.10	0.940
317.31	0.947
317.52	0.948
317.73	0.931
317.94	0.931
318.15	0.972
318.36	0.970
318.57	0.953
318.78	0.948
318.99	0.980
319.20	0.980
319.41	0.950
319.62	0.950
319.83	0.962
320.04	0.957
320.25	0.943
320.46	0.912
320.67	0.918
320.88	0.916
321.09	0.900
321.30	0.887
321.51	0.899
321.72	0.899
321.93	0.884
322.14	0.879
322.35	0.901
322.56	0.903
322.77	0.890
322.98	0.899
323.19	0.907
323.40	0.912
323.61	0.893
323.82	0.889
324.03	0.894
324.24	0.891
324.45	0.879
324.66	0.864
324.87	0.864
325.08	0.863
325.29	0.845
325.50	0.839
325.71	0.844
325.92	0.851
326.13	0.839
326.34	0.839
326.55	0.849
326.76	0.848
326.97	0.838
327.18	0.832
327.39	0.856
327.60	0.858
327.80	0.857
328.01	0.856
328.22	0.858
328.43	0.860
328.64	0.850
328.85	0.853
329.06	0.856
329.27	0.856
329.48	0.850
329.69	0.835
329.90	0.844
330.11	0.838
330.32	0.830
330.53	0.826
330.74	0.829
330.95	0.825
331.16	0.812
331.37	0.818
331.58	0.819
331.79	0.819
332.00	0.810
332.21	0.804
332.42	0.809
332.63	0.802
332.83	0.796
333.04	0.797
333.25	0.809
333.46	0.808
333.67	0.796
333.88	0.799
334.09	0.807
334.30	0.804
334.51	0.796
334.72	0.792
334.93	0.796
335.14	0.794
335.35	0.787
335.56	0.783
335.77	0.792
335.98	0.791
336.18	0.784
336.39	0.778
336.60	0.785
336.81	0.782
337.02	0.782
337.23	0.785
337.44	0.790
337.65	0.792
337.86	0.782
338.07	0.778
338.28	0.784
338.49	0.782
338.70	0.776
338.91	0.781
339.11	0.789
339.32	0.785
339.53	0.773
339.74	0.770
339.95	0.769
340.16	0.768
340.37	0.760
340.58	0.758
340.79	0.762
341.00	0.761
341.21	0.751
341.41	0.752
341.62	0.754
341.83	0.756
342.04	0.751
342.25	0.759
342.46	0.765
342.67	0.764
342.88	0.757
343.09	0.757
343.30	0.764
343.50	0.767
343.71	0.757
343.92	0.756
344.13	0.761
344.34	0.762
344.55	0.748
344.76	0.746
344.97	0.751
345.18	0.749
345.38	0.747
345.59	0.743
345.80	0.744
346.01	0.742
346.22	0.737
346.43	0.732
346.64	0.740
346.85	0.740
347.06	0.733
347.26	0.734
347.47	0.739
347.68	0.734
347.89	0.731
348.10	0.726
348.31	0.734
348.52	0.734
348.73	0.731
348.93	0.727
349.14	0.730
349.35	0.730
349.56	0.724
349.77	0.720
349.98	0.726
350.19	0.724
350.39	0.719
350.60	0.715
350.81	0.729
351.02	0.728
351.23	0.724
351.44	0.725
351.65	0.729
351.86	0.726
352.06	0.724
352.27	0.724
352.48	0.727
352.69	0.727
352.90	0.722
353.11	0.710
353.31	0.717
353.52	0.715
353.73	0.707
353.94	0.709
354.15	0.716
354.36	0.716
354.57	0.707
354.77	0.709
354.98	0.709
355.19	0.709
355.40	0.708
355.61	0.714
355.82	0.718
356.02	0.717
356.23	0.710
356.44	0.712
356.65	0.716
356.86	0.718
357.07	0.711
357.27	0.715
357.48	0.718
357.69	0.714
357.90	0.699
358.11	0.697
358.32	0.701
358.52	0.704
358.73	0.694
358.94	0.696
359.15	0.701
359.36	0.703
359.56	0.698
359.77	0.695
359.98	0.701
360.19	0.701
360.40	0.697
360.61	0.697
360.81	0.698
361.02	0.699
361.23	0.690
361.44	0.690
361.65	0.691
361.85	0.691
362.06	0.688
362.27	0.691
362.48	0.691
362.69	0.693
362.89	0.688
363.10	0.689
363.31	0.694
363.52	0.696
363.73	0.691
363.93	0.692
364.14	0.694
364.35	0.695
364.56	0.685
364.77	0.688
364.97	0.691
365.18	0.692
365.39	0.686
365.60	0.683
365.81	0.685
366.01	0.685
366.22	0.681
366.43	0.682
366.64	0.685
366.84	0.691
367.05	0.687
367.26	0.686
367.47	0.689
367.68	0.689
367.88	0.686
368.09	0.685
368.30	0.687
368.51	0.687
368.71	0.685
368.92	0.689
369.13	0.687
369.34	0.687
369.55	0.685
369.75	0.686
369.96	0.693
370.17	0.693
370.38	0.688
370.58	0.688
370.79	0.694
371.00	0.692
371.21	0.683
371.41	0.688
371.62	0.693
371.83	0.689
372.04	0.686
372.24	0.679
372.45	0.682
372.66	0.682
372.87	0.679
373.07	0.676
373.28	0.679
373.49	0.682
373.70	0.673
373.90	0.672
374.11	0.681
374.32	0.680
374.53	0.680
374.73	0.680
374.94	0.683
375.15	0.684
375.36	0.680
375.56	0.687
375.77	0.688
375.98	0.688
376.19	0.685
376.39	0.679
376.60	0.683
376.81	0.683
377.02	0.680
377.22	0.678
377.43	0.679
377.64	0.680
377.84	0.671
378.05	0.675
378.26	0.682
378.47	0.681
378.67	0.677
378.88	0.675
379.09	0.676
379.30	0.676
379.50	0.674
379.71	0.675
379.92	0.678
380.12	0.678
380.33	0.669
380.54	0.666
380.75	0.673
380.95	0.673
381.16	0.670
381.37	0.671
381.57	0.673
381.78	0.674
381.99	0.673
382.20	0.672
382.40	0.675
382.61	0.675
382.82	0.671
383.02	0.665
383.23	0.668
383.44	0.668
383.64	0.665
383.85	0.668
384.06	0.671
384.27	0.669
384.47	0.667
384.68	0.667
384.89	0.673
385.09	0.672
385.30	0.671
385.51	0.670
385.71	0.673
385.92	0.674
386.13	0.671
386.33	0.673
386.54	0.675
386.75	0.673
386.95	0.669
387.16	0.664
387.37	0.667
387.58	0.667
387.78	0.665
387.99	0.663
388.20	0.666
388.40	0.663
388.61	0.659
388.82	0.662
389.02	0.665
389.23	0.665
389.44	0.662
389.64	0.662
389.85	0.673
390.06	0.672
390.26	0.672
390.47	0.670
390.68	0.673
390.88	0.671
391.09	0.666
391.30	0.665
391.50	0.665
391.71	0.665
391.92	0.662
392.12	0.655
392.33	0.656
392.53	0.655
392.74	0.656
392.95	0.654
393.15	0.658
393.36	0.659
393.57	0.657
393.77	0.660
393.98	0.663
394.19	0.662
394.39	0.660
394.60	0.662
394.81	0.664
395.01	0.661
395.22	0.659
395.43	0.659
395.63	0.664
395.84	0.665
396.04	0.660
396.25	0.662
396.46	0.664
396.66	0.662
396.87	0.659
397.08	0.656
397.28	0.659
397.49	0.660
397.69	0.656
397.90	0.651
398.11	0.653
398.31	0.653
398.52	0.649
398.73	0.650
398.93	0.649
399.14	0.649
399.34	0.647
399.55	0.648
399.76	0.649
399.96	0.650
400.17	0.648
400.37	0.646
400.58	0.653
400.79	0.655
400.99	0.652
401.20	0.657
401.41	0.660
401.61	0.660
401.82	0.664
402.02	0.663
402.23	0.664
402.44	0.663
402.64	0.663
402.85	0.657
403.05	0.657
403.26	0.656
403.47	0.649
403.67	0.648
403.88	0.649
404.08	0.644
404.29	0.642
404.50	0.641
404.70	0.642
404.91	0.641
405.11	0.638
405.32	0.639
405.52	0.640
405.73	0.640
405.94	0.638
406.14	0.640
406.35	0.642
406.55	0.642
406.76	0.639
406.97	0.640
407.17	0.642
407.38	0.642
407.58	0.640
407.79	0.642
407.99	0.644
408.20	0.645
408.41	0.641
408.61	0.639
408.82	0.641
409.02	0.640
409.23	0.638
409.43	0.638
409.64	0.639
409.84	0.638
410.05	0.634
410.26	0.633
410.46	0.633
410.67	0.633
410.87	0.633
411.08	0.635
411.28	0.637
411.49	0.638
411.69	0.635
411.90	0.636
412.11	0.638
412.31	0.640
412.52	0.638
412.72	0.639
412.93	0.640
413.13	0.639
413.34	0.635
413.54	0.636
413.75	0.638
413.95	0.638
414.16	0.634
414.37	0.637
414.57	0.637
414.78	0.639
414.98	0.637
415.19	0.638
415.39	0.636
415.60	0.638
415.80	0.637
416.01	0.636
416.21	0.638
416.42	0.639
416.62	0.633
416.83	0.634
417.03	0.634
417.24	0.634
417.44	0.632
417.65	0.632
417.86	0.632
418.06	0.631
418.27	0.628
418.47	0.629
418.68	0.630
418.88	0.631
419.09	0.629
419.29	0.630
419.50	0.631
419.70	0.630
419.91	0.629
420.11	0.627
420.32	0.630
420.52	0.630
420.73	0.628
420.93	0.629
421.14	0.631
421.34	0.630
421.55	0.627
421.75	0.626
421.96	0.628
422.16	0.628
422.37	0.627
422.57	0.624
422.78	0.627
422.98	0.624
423.19	0.622
423.39	0.620
423.60	0.624
423.80	0.625
424.01	0.624
424.21	0.627
424.42	0.628
424.62	0.628
424.83	0.627
425.03	0.627
425.23	0.630
425.44	0.630
425.64	0.630
425.85	0.630
426.05	0.631
426.26	0.631
426.46	0.627
426.67	0.627
426.87	0.632
427.08	0.632
427.28	0.629
427.49	0.630
427.69	0.631
427.90	0.630
428.10	0.627
428.31	0.627
428.51	0.629
428.71	0.628
428.92	0.629
429.12	0.626
429.33	0.628
429.53	0.631
429.74	0.635
429.94	0.635
430.15	0.635
430.35	0.636
430.56	0.632
430.76	0.632
430.96	0.633
431.17	0.630
431.37	0.627
431.58	0.626
431.78	0.624
431.99	0.618
432.19	0.619
432.40	0.621
432.60	0.622
432.80	0.626
433.01	0.624
433.21	0.625
433.42	0.628
433.62	0.628
433.83	0.627
434.03	0.630
434.23	0.633
434.44	0.632
434.64	0.630
434.85	0.634
435.05	0.636
435.26	0.636
435.46	0.634
435.66	0.633
435.87	0.634
436.07	0.634
436.28	0.629
436.48	0.626
436.69	0.626
436.89	0.627
437.09	0.621
437.30	0.619
437.50	0.620
437.71	0.632
437.91	0.631
438.11	0.632
438.32	0.637
438.52	0.637
438.73	0.637
438.93	0.635
439.13	0.636
439.34	0.639
439.54	0.637
439.75	0.637
439.95	0.628
440.15	0.631
440.36	0.630
440.56	0.627
440.77	0.629
440.97	0.629
441.17	0.627
441.38	0.628
441.58	0.626
441.79	0.626
441.99	0.624
442.19	0.624
442.40	0.623
442.60	0.622
442.81	0.620
443.01	0.621
443.21	0.622
443.42	0.621
443.62	0.619
443.82	0.619
444.03	0.622
444.23	0.622
444.44	0.622
444.64	0.621
444.84	0.622
445.05	0.622
445.25	0.619
445.45	0.620
445.66	0.623
445.86	0.623
446.06	0.623
446.27	0.623
446.47	0.627
446.68	0.625
446.88	0.623
447.08	0.624
447.29	0.625
447.49	0.625
447.69	0.625
447.90	0.623
448.10	0.627
448.30	0.625
448.51	0.625
448.71	0.623
448.91	0.626
449.12	0.625
449.32	0.626
449.52	0.626
449.73	0.630
449.93	0.630
450.14	0.630
450.34	0.630
450.54	0.632
450.75	0.630
450.95	0.629
451.15	0.629
451.36	0.632
451.56	0.629
451.76	0.627
451.97	0.625
452.17	0.625
452.37	0.624
452.58	0.621
452.78	0.621
452.98	0.623
453.19	0.623
453.39	0.623
453.59	0.622
453.79	0.623
454.00	0.623
454.20	0.622
454.40	0.622
454.61	0.624
454.81	0.625
455.01	0.623
455.22	0.624
455.42	0.626
455.62	0.624
455.83	0.623
456.03	0.626
456.23	0.628
456.44	0.629
456.64	0.628
456.84	0.628
457.04	0.629
457.25	0.629
457.45	0.626
457.65	0.625
457.86	0.626
458.06	0.625
458.26	0.620
458.47	0.619
458.67	0.620
458.87	0.621
459.07	0.618
459.28	0.620
459.48	0.623
459.68	0.624
459.89	0.623
460.09	0.622
