SpectraSuite Data File
++++++++++++++++++++++++++++++++++++
Date: Fri Jun 19 15:50:02 CEST 2015
User: introlabs
Dark Spectrum Present: Yes
Reference Spectrum Present: Yes
Number of Sampled Component Spectra: 1
Spectrometers: USB4H08886
Integration Time (usec): 745692 (USB4H08886)
Spectra Averaged: 5 (USB4H08886)
Boxcar Smoothing: 5 (USB4H08886)
Correct for Electrical Dark: Yes (USB4H08886)
Strobe/Lamp Enabled: No (USB4H08886)
Correct for Detector Non-linearity: Yes (USB4H08886)
Correct for Stray Light: Yes (USB4H08886)
Number of Pixels in Processed Spectrum: 3648
>>>>>Begin Processed Spectral Data<<<<<
178.14	-0.000
178.36	-0.000
178.57	-0.000
178.79	-0.000
179.01	-0.000
179.22	-0.000
179.44	-0.000
179.65	-0.000
179.87	-0.000
180.08	-0.000
180.30	-0.000
180.52	-0.000
180.73	-0.000
180.95	-0.000
181.16	-0.000
181.38	-0.000
181.59	-0.000
181.81	-0.000
182.03	-0.000
182.24	-0.000
182.46	-0.000
182.67	-0.000
182.89	-0.000
183.10	-0.000
183.32	-0.000
183.54	-0.000
183.75	-0.000
183.97	-0.000
184.18	-0.000
184.40	-0.000
184.61	-0.000
184.83	-0.000
185.04	-0.000
185.26	-0.000
185.48	-0.000
185.69	-0.000
185.91	-0.000
186.12	-0.000
186.34	-0.000
186.55	-0.000
186.77	-0.000
186.98	-0.000
187.20	-0.000
187.42	-0.000
187.63	-0.000
187.85	-0.000
188.06	-0.000
188.28	-0.000
188.49	-0.000
188.71	-0.000
188.92	-0.000
189.14	-0.000
189.36	-0.000
189.57	-0.000
189.79	-0.000
190.00	-0.000
190.22	-0.000
190.43	-0.000
190.65	-0.000
190.86	-0.000
191.08	-0.000
191.29	-0.000
191.51	-0.000
191.72	-0.000
191.94	-0.000
192.16	-0.000
192.37	-0.000
192.59	-0.000
192.80	-0.000
193.02	-0.000
193.23	-0.000
193.45	-0.000
193.66	-0.000
193.88	-0.000
194.09	-0.000
194.31	-0.000
194.52	-0.000
194.74	-0.000
194.95	-0.000
195.17	-0.000
195.38	-0.000
195.60	-0.000
195.81	-0.000
196.03	-0.000
196.25	-0.000
196.46	-0.000
196.68	-0.000
196.89	-0.000
197.11	-0.000
197.32	-0.000
197.54	-0.000
197.75	-0.000
197.97	-0.000
198.18	-0.000
198.40	-0.000
198.61	-0.000
198.83	-0.000
199.04	-0.000
199.26	-0.000
199.47	-0.000
199.69	-0.000
199.90	-0.000
200.12	-0.000
200.33	-0.000
200.55	-0.000
200.76	-0.000
200.98	-0.000
201.19	-0.000
201.41	-0.000
201.62	-0.000
201.84	-0.000
202.05	-0.000
202.27	-0.000
202.48	-0.000
202.70	-0.000
202.91	-0.000
203.13	-0.000
203.34	-0.000
203.56	-0.000
203.77	-0.000
203.99	-0.000
204.20	-0.000
204.42	-0.000
204.63	-0.000
204.85	-0.000
205.06	-0.000
205.28	-0.000
205.49	-0.000
205.71	-0.000
205.92	-0.000
206.14	-0.000
206.35	-0.000
206.56	-0.000
206.78	-0.000
206.99	-0.000
207.21	-0.000
207.42	-0.000
207.64	-0.000
207.85	-0.000
208.07	-0.000
208.28	-0.000
208.50	-0.000
208.71	-0.000
208.93	-0.000
209.14	-0.000
209.36	-0.000
209.57	-0.000
209.79	-0.000
210.00	-0.000
210.22	-0.000
210.43	-0.000
210.64	-0.000
210.86	-0.000
211.07	-0.000
211.29	-0.000
211.50	-0.000
211.72	-0.000
211.93	-0.000
212.15	-0.000
212.36	-0.000
212.58	-0.000
212.79	-0.000
213.01	-0.000
213.22	-0.000
213.43	-0.000
213.65	-0.000
213.86	-0.000
214.08	-0.000
214.29	-0.000
214.51	-0.000
214.72	-0.000
214.94	-0.000
215.15	-0.000
215.36	-0.000
215.58	-0.000
215.79	-0.000
216.01	-0.000
216.22	-0.000
216.44	-0.000
216.65	-0.000
216.87	-0.000
217.08	-0.000
217.29	-0.000
217.51	-0.000
217.72	-0.000
217.94	-0.000
218.15	-0.000
218.37	-0.000
218.58	-0.000
218.80	-0.000
219.01	-0.000
219.22	-0.000
219.44	-0.000
219.65	-0.000
219.87	-0.000
220.08	-0.000
220.30	-0.000
220.51	-0.000
220.72	-0.000
220.94	-0.000
221.15	-0.000
221.37	-0.000
221.58	-0.000
221.79	-0.000
222.01	-0.000
222.22	-0.000
222.44	-0.000
222.65	-0.000
222.87	-0.000
223.08	-0.000
223.29	-0.000
223.51	-0.000
223.72	-0.000
223.94	-0.000
224.15	-0.000
224.36	-0.000
224.58	-0.000
224.79	-0.000
225.01	-0.000
225.22	-0.000
225.44	-0.000
225.65	-0.000
225.86	-0.000
226.08	-0.000
226.29	-0.000
226.51	-0.000
226.72	-0.000
226.93	-0.000
227.15	-0.000
227.36	-0.000
227.58	-0.000
227.79	-0.000
228.00	-0.000
228.22	-0.000
228.43	-0.000
228.65	-0.000
228.86	-0.000
229.07	-0.000
229.29	-0.000
229.50	-0.000
229.72	-0.000
229.93	-0.000
230.14	-0.000
230.36	-0.000
230.57	-0.000
230.78	-0.000
231.00	-0.000
231.21	-0.000
231.43	-0.000
231.64	-0.000
231.85	-0.000
232.07	-0.000
232.28	-0.000
232.50	-0.000
232.71	-0.000
232.92	-0.000
233.14	-0.000
233.35	-0.000
233.56	-0.000
233.78	-0.000
233.99	-0.000
234.21	-0.000
234.42	-0.000
234.63	-0.000
234.85	-0.000
235.06	-0.000
235.27	-0.000
235.49	-0.000
235.70	-0.000
235.91	-0.000
236.13	-0.000
236.34	-0.000
236.56	-0.000
236.77	-0.000
236.98	-0.000
237.20	-0.000
237.41	-0.000
237.62	-0.000
237.84	-0.000
238.05	-0.000
238.26	-0.000
238.48	-0.000
238.69	-0.000
238.91	-0.000
239.12	-0.000
239.33	-0.000
239.55	-0.000
239.76	-0.000
239.97	-0.000
240.19	-0.000
240.40	-0.000
240.61	-0.000
240.83	-0.000
241.04	-0.000
241.25	-0.000
241.47	-0.000
241.68	-0.000
241.89	-0.000
242.11	-0.000
242.32	-0.000
242.53	-0.000
242.75	-0.000
242.96	-0.000
243.17	-0.000
243.39	-0.000
243.60	-0.000
243.81	-0.000
244.03	-0.000
244.24	-0.000
244.45	-0.000
244.67	-0.000
244.88	-0.000
245.09	-0.000
245.31	-0.000
245.52	-0.000
245.73	-0.000
245.95	-0.000
246.16	-0.000
246.37	-0.000
246.59	-0.000
246.80	-0.000
247.01	-0.000
247.23	-0.000
247.44	-0.000
247.65	-0.000
247.87	-0.000
248.08	-0.000
248.29	-0.000
248.51	-0.000
248.72	-0.000
248.93	-0.000
249.15	-0.000
249.36	-0.000
249.57	-0.000
249.78	-0.000
250.00	-0.000
250.21	-0.000
250.42	-0.000
250.64	-0.000
250.85	-0.000
251.06	-0.000
251.28	-0.000
251.49	-0.000
251.70	-0.000
251.92	-0.000
252.13	-0.000
252.34	-0.000
252.55	-0.000
252.77	-0.000
252.98	-0.000
253.19	-0.000
253.41	-0.000
253.62	-0.000
253.83	-0.000
254.05	-0.000
254.26	-0.000
254.47	-0.000
254.68	-0.000
254.90	-0.000
255.11	-0.000
255.32	-0.000
255.54	-0.000
255.75	-0.000
255.96	-0.000
256.17	-0.000
256.39	-0.000
256.60	-0.000
256.81	-0.000
257.03	-0.000
257.24	-0.000
257.45	-0.000
257.66	-0.000
257.88	-0.000
258.09	-0.000
258.30	-0.000
258.51	-0.000
258.73	-0.000
258.94	-0.000
259.15	-0.000
259.37	-0.000
259.58	-0.000
259.79	-0.000
260.00	-0.000
260.22	-0.000
260.43	-0.000
260.64	-0.000
260.85	-0.000
261.07	-0.000
261.28	-0.000
261.49	-0.000
261.71	-0.000
261.92	-0.000
262.13	-0.000
262.34	-0.000
262.56	-0.000
262.77	-0.000
262.98	-0.000
263.19	-0.000
263.41	-0.000
263.62	-0.000
263.83	-0.000
264.04	-0.000
264.26	-0.000
264.47	-0.000
264.68	-0.000
264.89	-0.000
265.11	-0.000
265.32	-0.000
265.53	-0.000
265.74	-0.000
265.96	-0.000
266.17	-0.000
266.38	-0.000
266.59	-0.000
266.81	-0.000
267.02	-0.000
267.23	-0.000
267.44	-0.000
267.65	-0.000
267.87	-0.000
268.08	-0.000
268.29	-0.000
268.50	-0.000
268.72	-0.000
268.93	-0.000
269.14	-0.000
269.35	-0.000
269.57	-0.000
269.78	-0.000
269.99	-0.000
270.20	-0.000
270.41	-0.000
270.63	-0.000
270.84	-0.000
271.05	-0.000
271.26	-0.000
271.48	-0.000
271.69	-0.000
271.90	-0.000
272.11	-0.000
272.32	-0.000
272.54	-0.000
272.75	-0.000
272.96	-0.000
273.17	-0.000
273.39	-0.000
273.60	-0.000
273.81	-0.000
274.02	-0.000
274.23	-0.000
274.45	-0.000
274.66	-0.000
274.87	-0.000
275.08	-0.000
275.29	-0.000
275.51	-0.000
275.72	-0.000
275.93	-0.000
276.14	-0.000
276.35	-0.000
276.57	-0.000
276.78	-0.000
276.99	-0.000
277.20	-0.000
277.41	-0.000
277.63	-0.000
277.84	-0.000
278.05	-0.000
278.26	-0.000
278.47	-0.000
278.69	-0.000
278.90	-0.000
279.11	-0.000
279.32	-0.000
279.53	-0.000
279.74	-0.000
279.96	-0.000
280.17	-0.000
280.38	-0.000
280.59	-0.000
280.80	-0.000
281.02	-0.000
281.23	-0.000
281.44	-0.000
281.65	-0.000
281.86	-0.000
282.07	-0.000
282.29	-0.000
282.50	-0.000
282.71	-0.000
282.92	-0.000
283.13	-0.000
283.35	-0.000
283.56	-0.000
283.77	-0.000
283.98	-0.000
284.19	-0.000
284.40	-0.000
284.62	-0.000
284.83	-0.000
285.04	-0.000
285.25	-0.000
285.46	-0.000
285.67	-0.000
285.88	-0.000
286.10	-0.000
286.31	-0.000
286.52	-0.000
286.73	-0.000
286.94	-0.000
287.15	-0.000
287.37	-0.000
287.58	-0.000
287.79	-0.000
288.00	-0.000
288.21	-0.000
288.42	-0.000
288.63	-0.000
288.85	-0.000
289.06	-0.000
289.27	-0.000
289.48	-0.000
289.69	-0.000
289.90	-0.000
290.11	-0.000
290.33	-0.000
290.54	-0.000
290.75	-0.000
290.96	-0.000
291.17	-0.000
291.38	-0.000
291.59	-0.000
291.81	-0.000
292.02	-0.000
292.23	-0.000
292.44	-0.000
292.65	-0.000
292.86	-0.000
293.07	-0.000
293.28	2.512
293.50	3.182
293.71	-0.000
293.92	-0.000
294.13	-0.000
294.34	-0.000
294.55	-0.000
294.76	-0.000
294.97	3.476
295.19	-0.000
295.40	-0.000
295.61	-0.000
295.82	2.796
296.03	2.260
296.24	2.344
296.45	1.838
296.66	1.635
296.87	1.653
297.09	1.686
297.30	1.820
297.51	1.600
297.72	1.594
297.93	1.653
298.14	1.617
298.35	1.595
298.56	1.577
298.77	1.654
298.99	1.635
299.20	1.636
299.41	1.622
299.62	1.568
299.83	1.554
300.04	1.497
300.25	1.491
300.46	1.521
300.67	1.502
300.88	1.467
301.10	1.472
301.31	1.524
301.52	1.464
301.73	1.425
301.94	1.432
302.15	1.438
302.36	1.409
302.57	1.360
302.78	1.365
302.99	1.388
303.20	1.406
303.41	1.335
303.63	1.319
303.84	1.321
304.05	1.318
304.26	1.272
304.47	1.277
304.68	1.273
304.89	1.268
305.10	1.241
305.31	1.228
305.52	1.266
305.73	1.265
305.94	1.232
306.15	1.226
306.37	1.244
306.58	1.251
306.79	1.229
307.00	1.251
307.21	1.285
307.42	1.278
307.63	1.256
307.84	1.220
308.05	1.250
308.26	1.249
308.47	1.234
308.68	1.233
308.89	1.227
309.10	1.223
309.31	1.189
309.52	1.179
309.73	1.189
309.95	1.183
310.16	1.160
310.37	1.150
310.58	1.164
310.79	1.162
311.00	1.161
311.21	1.162
311.42	1.163
311.63	1.159
311.84	1.144
312.05	1.141
312.26	1.158
312.47	1.170
312.68	1.148
312.89	1.133
313.10	1.137
313.31	1.112
313.52	1.117
313.73	1.119
313.94	1.118
314.15	1.101
314.36	1.086
314.57	1.083
314.78	1.070
314.99	1.065
315.21	1.055
315.42	1.060
315.63	1.070
315.84	1.049
316.05	1.036
316.26	1.044
316.47	1.058
316.68	1.055
316.89	1.037
317.10	1.056
317.31	1.060
317.52	1.063
317.73	1.046
317.94	1.046
318.15	1.082
318.36	1.081
318.57	1.067
318.78	1.058
318.99	1.087
319.20	1.083
319.41	1.054
319.62	1.055
319.83	1.065
320.04	1.061
320.25	1.050
320.46	1.019
320.67	1.022
320.88	1.018
321.09	1.006
321.30	0.995
321.51	1.008
321.72	1.006
321.93	0.994
322.14	0.987
322.35	1.011
322.56	1.013
322.77	1.004
322.98	1.015
323.19	1.021
323.40	1.029
323.61	1.007
323.82	1.002
324.03	1.005
324.24	1.002
324.45	0.992
324.66	0.972
324.87	0.967
325.08	0.966
325.29	0.949
325.50	0.941
325.71	0.945
325.92	0.953
326.13	0.941
326.34	0.942
326.55	0.948
326.76	0.947
326.97	0.939
327.18	0.935
327.39	0.958
327.60	0.959
327.80	0.963
328.01	0.961
328.22	0.959
328.43	0.963
328.64	0.952
328.85	0.956
329.06	0.957
329.27	0.956
329.48	0.953
329.69	0.935
329.90	0.943
330.11	0.935
330.32	0.930
330.53	0.924
330.74	0.923
330.95	0.922
331.16	0.909
331.37	0.917
331.58	0.916
331.79	0.917
332.00	0.910
332.21	0.904
332.42	0.908
332.63	0.898
332.83	0.896
333.04	0.899
333.25	0.909
333.46	0.909
333.67	0.896
333.88	0.898
334.09	0.906
334.30	0.904
334.51	0.897
334.72	0.893
334.93	0.896
335.14	0.895
335.35	0.887
335.56	0.883
335.77	0.888
335.98	0.887
336.18	0.881
336.39	0.873
336.60	0.876
336.81	0.875
337.02	0.874
337.23	0.878
337.44	0.880
337.65	0.883
337.86	0.874
338.07	0.871
338.28	0.873
338.49	0.872
338.70	0.867
338.91	0.873
339.11	0.879
339.32	0.877
339.53	0.867
339.74	0.864
339.95	0.859
340.16	0.857
340.37	0.850
340.58	0.849
340.79	0.852
341.00	0.851
341.21	0.842
341.41	0.841
341.62	0.841
341.83	0.841
342.04	0.837
342.25	0.847
342.46	0.849
342.67	0.849
342.88	0.844
343.09	0.843
343.30	0.848
343.50	0.851
343.71	0.843
343.92	0.842
344.13	0.846
344.34	0.846
344.55	0.832
344.76	0.830
344.97	0.833
345.18	0.832
345.38	0.830
345.59	0.826
345.80	0.825
346.01	0.823
346.22	0.820
346.43	0.815
346.64	0.821
346.85	0.820
347.06	0.816
347.26	0.816
347.47	0.820
347.68	0.815
347.89	0.812
348.10	0.807
348.31	0.813
348.52	0.811
348.73	0.809
348.93	0.807
349.14	0.808
349.35	0.807
349.56	0.802
349.77	0.797
349.98	0.802
350.19	0.800
350.39	0.796
350.60	0.791
350.81	0.806
351.02	0.806
351.23	0.801
351.44	0.805
351.65	0.808
351.86	0.806
352.06	0.805
352.27	0.805
352.48	0.806
352.69	0.805
352.90	0.800
353.11	0.787
353.31	0.794
353.52	0.790
353.73	0.783
353.94	0.785
354.15	0.790
354.36	0.789
354.57	0.782
354.77	0.784
354.98	0.785
355.19	0.785
355.40	0.784
355.61	0.789
355.82	0.792
356.02	0.791
356.23	0.784
356.44	0.786
356.65	0.788
356.86	0.789
357.07	0.782
357.27	0.784
357.48	0.786
357.69	0.782
357.90	0.768
358.11	0.766
358.32	0.768
358.52	0.771
358.73	0.762
358.94	0.765
359.15	0.768
359.36	0.769
359.56	0.765
359.77	0.763
359.98	0.769
360.19	0.769
360.40	0.766
360.61	0.768
360.81	0.766
361.02	0.766
361.23	0.758
361.44	0.756
361.65	0.757
361.85	0.756
362.06	0.755
362.27	0.757
362.48	0.757
362.69	0.758
362.89	0.752
363.10	0.754
363.31	0.759
363.52	0.762
363.73	0.758
363.93	0.758
364.14	0.759
364.35	0.760
364.56	0.751
364.77	0.753
364.97	0.754
365.18	0.755
365.39	0.751
365.60	0.747
365.81	0.746
366.01	0.747
366.22	0.744
366.43	0.743
366.64	0.745
366.84	0.750
367.05	0.746
367.26	0.746
367.47	0.747
367.68	0.747
367.88	0.745
368.09	0.743
368.30	0.745
368.51	0.745
368.71	0.744
368.92	0.748
369.13	0.745
369.34	0.745
369.55	0.745
369.75	0.744
369.96	0.750
370.17	0.749
370.38	0.747
370.58	0.747
370.79	0.751
371.00	0.750
371.21	0.743
371.41	0.748
371.62	0.752
371.83	0.747
372.04	0.746
372.24	0.740
372.45	0.740
372.66	0.740
372.87	0.737
373.07	0.734
373.28	0.735
373.49	0.738
373.70	0.730
373.90	0.728
374.11	0.737
374.32	0.737
374.53	0.737
374.73	0.738
374.94	0.740
375.15	0.740
375.36	0.738
375.56	0.747
375.77	0.747
375.98	0.746
376.19	0.744
376.39	0.738
376.60	0.741
376.81	0.741
377.02	0.739
377.22	0.738
377.43	0.738
377.64	0.738
377.84	0.729
378.05	0.734
378.26	0.740
378.47	0.739
378.67	0.737
378.88	0.735
379.09	0.735
379.30	0.735
379.50	0.733
379.71	0.735
379.92	0.737
380.12	0.736
380.33	0.729
380.54	0.725
380.75	0.732
380.95	0.731
381.16	0.730
381.37	0.730
381.57	0.730
381.78	0.731
381.99	0.731
382.20	0.731
382.40	0.734
382.61	0.735
382.82	0.731
383.02	0.725
383.23	0.728
383.44	0.728
383.64	0.727
383.85	0.729
384.06	0.732
384.27	0.729
384.47	0.728
384.68	0.729
384.89	0.734
385.09	0.734
385.30	0.734
385.51	0.732
385.71	0.736
385.92	0.737
386.13	0.736
386.33	0.738
386.54	0.738
386.75	0.737
386.95	0.733
387.16	0.729
387.37	0.731
387.58	0.731
387.78	0.730
387.99	0.727
388.20	0.728
388.40	0.726
388.61	0.722
388.82	0.726
389.02	0.728
389.23	0.728
389.44	0.727
389.64	0.728
389.85	0.739
390.06	0.739
390.26	0.740
390.47	0.740
390.68	0.742
390.88	0.740
391.09	0.736
391.30	0.735
391.50	0.735
391.71	0.735
391.92	0.732
392.12	0.724
392.33	0.724
392.53	0.724
392.74	0.725
392.95	0.724
393.15	0.727
393.36	0.728
393.57	0.727
393.77	0.730
393.98	0.731
394.19	0.731
394.39	0.731
394.60	0.734
394.81	0.735
395.01	0.733
395.22	0.731
395.43	0.732
395.63	0.737
395.84	0.738
396.04	0.734
396.25	0.736
396.46	0.737
396.66	0.736
396.87	0.734
397.08	0.732
397.28	0.734
397.49	0.736
397.69	0.733
397.90	0.727
398.11	0.728
398.31	0.729
398.52	0.726
398.73	0.727
398.93	0.726
399.14	0.725
399.34	0.723
399.55	0.724
399.76	0.724
399.96	0.725
400.17	0.724
400.37	0.723
400.58	0.730
400.79	0.731
400.99	0.729
401.20	0.735
401.41	0.738
401.61	0.740
401.82	0.746
402.02	0.745
402.23	0.747
402.44	0.746
402.64	0.746
402.85	0.741
403.05	0.740
403.26	0.739
403.47	0.733
403.67	0.732
403.88	0.731
404.08	0.725
404.29	0.723
404.50	0.723
404.70	0.723
404.91	0.723
405.11	0.720
405.32	0.720
405.52	0.720
405.73	0.720
405.94	0.720
406.14	0.722
406.35	0.724
406.55	0.724
406.76	0.722
406.97	0.723
407.17	0.726
407.38	0.726
407.58	0.724
407.79	0.727
407.99	0.728
408.20	0.729
408.41	0.725
408.61	0.723
408.82	0.724
409.02	0.724
409.23	0.721
409.43	0.720
409.64	0.721
409.84	0.721
410.05	0.718
410.26	0.717
410.46	0.716
410.67	0.716
410.87	0.718
411.08	0.720
411.28	0.721
411.49	0.722
411.69	0.720
411.90	0.722
412.11	0.724
412.31	0.725
412.52	0.724
412.72	0.725
412.93	0.725
413.13	0.724
413.34	0.720
413.54	0.722
413.75	0.724
413.95	0.723
414.16	0.720
414.37	0.722
414.57	0.722
414.78	0.724
414.98	0.723
415.19	0.723
415.39	0.721
415.60	0.723
415.80	0.722
416.01	0.720
416.21	0.722
416.42	0.722
416.62	0.718
416.83	0.718
417.03	0.718
417.24	0.717
417.44	0.715
417.65	0.715
417.86	0.715
418.06	0.712
418.27	0.710
418.47	0.711
418.68	0.711
418.88	0.712
419.09	0.710
419.29	0.710
419.50	0.711
419.70	0.711
419.91	0.710
420.11	0.708
420.32	0.710
420.52	0.710
420.73	0.710
420.93	0.711
421.14	0.712
421.34	0.711
421.55	0.708
421.75	0.707
421.96	0.708
422.16	0.707
422.37	0.706
422.57	0.704
422.78	0.705
422.98	0.702
423.19	0.699
423.39	0.697
423.60	0.701
423.80	0.703
424.01	0.702
424.21	0.704
424.42	0.705
424.62	0.704
424.83	0.703
425.03	0.704
425.23	0.706
425.44	0.706
425.64	0.707
425.85	0.706
426.05	0.706
426.26	0.706
426.46	0.703
426.67	0.703
426.87	0.707
427.08	0.708
427.28	0.706
427.49	0.707
427.69	0.708
427.90	0.706
428.10	0.703
428.31	0.703
428.51	0.705
428.71	0.704
428.92	0.705
429.12	0.703
429.33	0.703
429.53	0.707
429.74	0.712
429.94	0.711
430.15	0.711
430.35	0.711
430.56	0.708
430.76	0.707
430.96	0.708
431.17	0.705
431.37	0.702
431.58	0.700
431.78	0.697
431.99	0.689
432.19	0.692
432.40	0.693
432.60	0.694
432.80	0.696
433.01	0.694
433.21	0.694
433.42	0.696
433.62	0.697
433.83	0.696
434.03	0.699
434.23	0.702
434.44	0.700
434.64	0.698
434.85	0.703
435.05	0.704
435.26	0.705
435.46	0.703
435.66	0.702
435.87	0.702
436.07	0.702
436.28	0.697
436.48	0.695
436.69	0.694
436.89	0.694
437.09	0.687
437.30	0.685
437.50	0.685
437.71	0.697
437.91	0.696
438.11	0.697
438.32	0.701
438.52	0.701
438.73	0.700
438.93	0.698
439.13	0.697
439.34	0.701
439.54	0.700
439.75	0.700
439.95	0.690
440.15	0.694
440.36	0.692
440.56	0.690
440.77	0.690
440.97	0.690
441.17	0.690
441.38	0.692
441.58	0.689
441.79	0.688
441.99	0.687
442.19	0.686
442.40	0.683
442.60	0.684
442.81	0.682
443.01	0.681
443.21	0.682
443.42	0.681
443.62	0.679
443.82	0.679
444.03	0.680
444.23	0.680
444.44	0.680
444.64	0.679
444.84	0.680
445.05	0.680
445.25	0.678
445.45	0.678
445.66	0.680
445.86	0.680
446.06	0.681
446.27	0.680
446.47	0.682
446.68	0.681
446.88	0.680
447.08	0.679
447.29	0.681
447.49	0.680
447.69	0.680
447.90	0.679
448.10	0.682
448.30	0.679
448.51	0.680
448.71	0.678
448.91	0.680
449.12	0.679
449.32	0.680
449.52	0.679
449.73	0.683
449.93	0.682
450.14	0.682
450.34	0.681
450.54	0.683
450.75	0.681
450.95	0.680
451.15	0.679
451.36	0.682
451.56	0.679
451.76	0.678
451.97	0.675
452.17	0.675
452.37	0.674
452.58	0.671
452.78	0.671
452.98	0.672
453.19	0.671
453.39	0.673
453.59	0.671
453.79	0.672
454.00	0.672
454.20	0.671
454.40	0.671
454.61	0.674
454.81	0.674
455.01	0.672
455.22	0.674
455.42	0.675
455.62	0.673
455.83	0.673
456.03	0.676
456.23	0.676
456.44	0.677
456.64	0.676
456.84	0.675
457.04	0.676
457.25	0.675
457.45	0.671
457.65	0.671
457.86	0.671
458.06	0.670
458.26	0.666
458.47	0.666
458.67	0.667
458.87	0.667
459.07	0.665
459.28	0.667
459.48	0.669
459.68	0.669
459.89	0.668
