SpectraSuite Data File
++++++++++++++++++++++++++++++++++++
Date: Fri Jun 19 12:33:49 CEST 2015
User: introlabs
Dark Spectrum Present: Yes
Reference Spectrum Present: Yes
Number of Sampled Component Spectra: 1
Spectrometers: USB4H08886
Integration Time (usec): 745692 (USB4H08886)
Spectra Averaged: 5 (USB4H08886)
Boxcar Smoothing: 5 (USB4H08886)
Correct for Electrical Dark: Yes (USB4H08886)
Strobe/Lamp Enabled: No (USB4H08886)
Correct for Detector Non-linearity: Yes (USB4H08886)
Correct for Stray Light: Yes (USB4H08886)
Number of Pixels in Processed Spectrum: 3648
>>>>>Begin Processed Spectral Data<<<<<
178.14	-0.000
178.36	-0.000
178.57	-0.000
178.79	-0.000
179.01	-0.000
179.22	-0.000
179.44	-0.000
179.65	-0.000
179.87	-0.000
180.08	-0.000
180.30	-0.000
180.52	-0.000
180.73	-0.000
180.95	-0.000
181.16	-0.000
181.38	-0.000
181.59	-0.000
181.81	-0.000
182.03	-0.000
182.24	-0.000
182.46	-0.000
182.67	-0.000
182.89	-0.000
183.10	-0.000
183.32	-0.000
183.54	-0.000
183.75	-0.000
183.97	-0.000
184.18	-0.000
184.40	-0.000
184.61	-0.000
184.83	-0.000
185.04	-0.000
185.26	-0.000
185.48	-0.000
185.69	-0.000
185.91	-0.000
186.12	-0.000
186.34	-0.000
186.55	-0.000
186.77	-0.000
186.98	-0.000
187.20	-0.000
187.42	-0.000
187.63	-0.000
187.85	-0.000
188.06	-0.000
188.28	-0.000
188.49	-0.000
188.71	-0.000
188.92	-0.000
189.14	-0.000
189.36	-0.000
189.57	-0.000
189.79	-0.000
190.00	-0.000
190.22	-0.000
190.43	-0.000
190.65	-0.000
190.86	-0.000
191.08	-0.000
191.29	-0.000
191.51	-0.000
191.72	-0.000
191.94	-0.000
192.16	-0.000
192.37	-0.000
192.59	-0.000
192.80	-0.000
193.02	-0.000
193.23	-0.000
193.45	-0.000
193.66	-0.000
193.88	-0.000
194.09	-0.000
194.31	-0.000
194.52	-0.000
194.74	-0.000
194.95	-0.000
195.17	-0.000
195.38	-0.000
195.60	-0.000
195.81	-0.000
196.03	-0.000
196.25	-0.000
196.46	-0.000
196.68	-0.000
196.89	-0.000
197.11	-0.000
197.32	-0.000
197.54	-0.000
197.75	-0.000
197.97	-0.000
198.18	-0.000
198.40	-0.000
198.61	-0.000
198.83	-0.000
199.04	-0.000
199.26	-0.000
199.47	-0.000
199.69	-0.000
199.90	-0.000
200.12	-0.000
200.33	-0.000
200.55	-0.000
200.76	-0.000
200.98	-0.000
201.19	-0.000
201.41	-0.000
201.62	-0.000
201.84	-0.000
202.05	-0.000
202.27	-0.000
202.48	-0.000
202.70	-0.000
202.91	-0.000
203.13	-0.000
203.34	-0.000
203.56	-0.000
203.77	-0.000
203.99	-0.000
204.20	-0.000
204.42	-0.000
204.63	-0.000
204.85	-0.000
205.06	-0.000
205.28	-0.000
205.49	-0.000
205.71	-0.000
205.92	-0.000
206.14	-0.000
206.35	-0.000
206.56	-0.000
206.78	-0.000
206.99	-0.000
207.21	-0.000
207.42	-0.000
207.64	-0.000
207.85	-0.000
208.07	-0.000
208.28	-0.000
208.50	-0.000
208.71	-0.000
208.93	-0.000
209.14	-0.000
209.36	-0.000
209.57	-0.000
209.79	-0.000
210.00	-0.000
210.22	-0.000
210.43	-0.000
210.64	-0.000
210.86	-0.000
211.07	-0.000
211.29	-0.000
211.50	-0.000
211.72	-0.000
211.93	-0.000
212.15	-0.000
212.36	-0.000
212.58	-0.000
212.79	-0.000
213.01	-0.000
213.22	-0.000
213.43	-0.000
213.65	-0.000
213.86	-0.000
214.08	-0.000
214.29	-0.000
214.51	-0.000
214.72	-0.000
214.94	-0.000
215.15	-0.000
215.36	-0.000
215.58	-0.000
215.79	-0.000
216.01	-0.000
216.22	-0.000
216.44	-0.000
216.65	-0.000
216.87	-0.000
217.08	-0.000
217.29	-0.000
217.51	-0.000
217.72	-0.000
217.94	-0.000
218.15	-0.000
218.37	-0.000
218.58	-0.000
218.80	-0.000
219.01	-0.000
219.22	-0.000
219.44	-0.000
219.65	-0.000
219.87	-0.000
220.08	-0.000
220.30	-0.000
220.51	-0.000
220.72	-0.000
220.94	-0.000
221.15	-0.000
221.37	-0.000
221.58	-0.000
221.79	-0.000
222.01	-0.000
222.22	-0.000
222.44	-0.000
222.65	-0.000
222.87	-0.000
223.08	-0.000
223.29	-0.000
223.51	-0.000
223.72	-0.000
223.94	-0.000
224.15	-0.000
224.36	-0.000
224.58	-0.000
224.79	-0.000
225.01	-0.000
225.22	-0.000
225.44	-0.000
225.65	-0.000
225.86	-0.000
226.08	-0.000
226.29	-0.000
226.51	-0.000
226.72	-0.000
226.93	-0.000
227.15	-0.000
227.36	-0.000
227.58	-0.000
227.79	-0.000
228.00	-0.000
228.22	-0.000
228.43	-0.000
228.65	-0.000
228.86	-0.000
229.07	-0.000
229.29	-0.000
229.50	-0.000
229.72	-0.000
229.93	-0.000
230.14	-0.000
230.36	-0.000
230.57	-0.000
230.78	-0.000
231.00	-0.000
231.21	-0.000
231.43	-0.000
231.64	-0.000
231.85	-0.000
232.07	-0.000
232.28	-0.000
232.50	-0.000
232.71	-0.000
232.92	-0.000
233.14	-0.000
233.35	-0.000
233.56	-0.000
233.78	-0.000
233.99	-0.000
234.21	-0.000
234.42	-0.000
234.63	-0.000
234.85	-0.000
235.06	-0.000
235.27	-0.000
235.49	-0.000
235.70	-0.000
235.91	-0.000
236.13	-0.000
236.34	-0.000
236.56	-0.000
236.77	-0.000
236.98	-0.000
237.20	-0.000
237.41	-0.000
237.62	-0.000
237.84	-0.000
238.05	-0.000
238.26	-0.000
238.48	-0.000
238.69	-0.000
238.91	-0.000
239.12	-0.000
239.33	-0.000
239.55	-0.000
239.76	-0.000
239.97	-0.000
240.19	-0.000
240.40	-0.000
240.61	-0.000
240.83	-0.000
241.04	-0.000
241.25	-0.000
241.47	-0.000
241.68	-0.000
241.89	-0.000
242.11	-0.000
242.32	-0.000
242.53	-0.000
242.75	-0.000
242.96	-0.000
243.17	-0.000
243.39	-0.000
243.60	-0.000
243.81	-0.000
244.03	-0.000
244.24	-0.000
244.45	-0.000
244.67	-0.000
244.88	-0.000
245.09	-0.000
245.31	-0.000
245.52	-0.000
245.73	-0.000
245.95	-0.000
246.16	-0.000
246.37	-0.000
246.59	-0.000
246.80	-0.000
247.01	-0.000
247.23	-0.000
247.44	-0.000
247.65	-0.000
247.87	-0.000
248.08	-0.000
248.29	-0.000
248.51	-0.000
248.72	-0.000
248.93	-0.000
249.15	-0.000
249.36	-0.000
249.57	-0.000
249.78	-0.000
250.00	-0.000
250.21	-0.000
250.42	-0.000
250.64	-0.000
250.85	-0.000
251.06	-0.000
251.28	-0.000
251.49	-0.000
251.70	-0.000
251.92	-0.000
252.13	-0.000
252.34	-0.000
252.55	-0.000
252.77	-0.000
252.98	-0.000
253.19	-0.000
253.41	-0.000
253.62	-0.000
253.83	-0.000
254.05	-0.000
254.26	-0.000
254.47	-0.000
254.68	-0.000
254.90	-0.000
255.11	-0.000
255.32	-0.000
255.54	-0.000
255.75	-0.000
255.96	-0.000
256.17	-0.000
256.39	-0.000
256.60	-0.000
256.81	-0.000
257.03	-0.000
257.24	-0.000
257.45	-0.000
257.66	-0.000
257.88	-0.000
258.09	-0.000
258.30	-0.000
258.51	-0.000
258.73	-0.000
258.94	-0.000
259.15	-0.000
259.37	-0.000
259.58	-0.000
259.79	-0.000
260.00	-0.000
260.22	-0.000
260.43	-0.000
260.64	-0.000
260.85	-0.000
261.07	-0.000
261.28	-0.000
261.49	-0.000
261.71	-0.000
261.92	-0.000
262.13	-0.000
262.34	-0.000
262.56	-0.000
262.77	-0.000
262.98	-0.000
263.19	-0.000
263.41	-0.000
263.62	-0.000
263.83	-0.000
264.04	-0.000
264.26	-0.000
264.47	-0.000
264.68	-0.000
264.89	-0.000
265.11	-0.000
265.32	-0.000
265.53	-0.000
265.74	-0.000
265.96	-0.000
266.17	-0.000
266.38	-0.000
266.59	-0.000
266.81	-0.000
267.02	-0.000
267.23	-0.000
267.44	-0.000
267.65	-0.000
267.87	-0.000
268.08	-0.000
268.29	-0.000
268.50	-0.000
268.72	-0.000
268.93	-0.000
269.14	-0.000
269.35	-0.000
269.57	-0.000
269.78	-0.000
269.99	-0.000
270.20	-0.000
270.41	-0.000
270.63	-0.000
270.84	-0.000
271.05	-0.000
271.26	-0.000
271.48	-0.000
271.69	-0.000
271.90	-0.000
272.11	-0.000
272.32	-0.000
272.54	-0.000
272.75	-0.000
272.96	-0.000
273.17	-0.000
273.39	-0.000
273.60	-0.000
273.81	-0.000
274.02	-0.000
274.23	-0.000
274.45	-0.000
274.66	-0.000
274.87	-0.000
275.08	-0.000
275.29	-0.000
275.51	-0.000
275.72	-0.000
275.93	-0.000
276.14	-0.000
276.35	-0.000
276.57	-0.000
276.78	-0.000
276.99	-0.000
277.20	-0.000
277.41	-0.000
277.63	-0.000
277.84	-0.000
278.05	-0.000
278.26	-0.000
278.47	-0.000
278.69	-0.000
278.90	-0.000
279.11	-0.000
279.32	-0.000
279.53	-0.000
279.74	-0.000
279.96	-0.000
280.17	-0.000
280.38	-0.000
280.59	-0.000
280.80	-0.000
281.02	-0.000
281.23	-0.000
281.44	-0.000
281.65	-0.000
281.86	-0.000
282.07	-0.000
282.29	-0.000
282.50	-0.000
282.71	-0.000
282.92	-0.000
283.13	-0.000
283.35	-0.000
283.56	-0.000
283.77	-0.000
283.98	-0.000
284.19	-0.000
284.40	-0.000
284.62	-0.000
284.83	-0.000
285.04	-0.000
285.25	-0.000
285.46	-0.000
285.67	-0.000
285.88	-0.000
286.10	-0.000
286.31	-0.000
286.52	-0.000
286.73	-0.000
286.94	-0.000
287.15	-0.000
287.37	-0.000
287.58	-0.000
287.79	-0.000
288.00	-0.000
288.21	-0.000
288.42	-0.000
288.63	-0.000
288.85	-0.000
289.06	-0.000
289.27	-0.000
289.48	-0.000
289.69	-0.000
289.90	-0.000
290.11	-0.000
290.33	-0.000
290.54	-0.000
290.75	-0.000
290.96	-0.000
291.17	-0.000
291.38	-0.000
291.59	-0.000
291.81	-0.000
292.02	-0.000
292.23	-0.000
292.44	-0.000
292.65	-0.000
292.86	-0.000
293.07	-0.000
293.28	2.536
293.50	-0.000
293.71	-0.000
293.92	-0.000
294.13	-0.000
294.34	-0.000
294.55	-0.000
294.76	-0.000
294.97	-0.000
295.19	-0.000
295.40	-0.000
295.61	-0.000
295.82	2.713
296.03	2.155
296.24	2.323
296.45	1.784
296.66	1.554
296.87	1.561
297.09	1.625
297.30	1.742
297.51	1.515
297.72	1.493
297.93	1.567
298.14	1.532
298.35	1.496
298.56	1.477
298.77	1.580
298.99	1.560
299.20	1.527
299.41	1.510
299.62	1.485
299.83	1.475
300.04	1.415
300.25	1.407
300.46	1.450
300.67	1.425
300.88	1.377
301.10	1.380
301.31	1.440
301.52	1.392
301.73	1.343
301.94	1.339
302.15	1.355
302.36	1.321
302.57	1.267
302.78	1.277
302.99	1.314
303.20	1.328
303.41	1.253
303.63	1.240
303.84	1.251
304.05	1.248
304.26	1.200
304.47	1.207
304.68	1.216
304.89	1.209
305.10	1.167
305.31	1.155
305.52	1.188
305.73	1.181
305.94	1.147
306.15	1.141
306.37	1.166
306.58	1.172
306.79	1.142
307.00	1.157
307.21	1.191
307.42	1.184
307.63	1.152
307.84	1.127
308.05	1.159
308.26	1.160
308.47	1.136
308.68	1.130
308.89	1.133
309.10	1.134
309.31	1.097
309.52	1.093
309.73	1.109
309.95	1.106
310.16	1.079
310.37	1.069
310.58	1.085
310.79	1.082
311.00	1.075
311.21	1.075
311.42	1.078
311.63	1.075
311.84	1.054
312.05	1.053
312.26	1.074
312.47	1.085
312.68	1.062
312.89	1.049
313.10	1.061
313.31	1.038
313.52	1.036
313.73	1.039
313.94	1.044
314.15	1.030
314.36	1.009
314.57	1.000
314.78	0.991
314.99	0.988
315.21	0.975
315.42	0.977
315.63	0.992
315.84	0.973
316.05	0.959
316.26	0.965
316.47	0.981
316.68	0.979
316.89	0.962
317.10	0.978
317.31	0.984
317.52	0.984
317.73	0.964
317.94	0.962
318.15	0.999
318.36	0.996
318.57	0.980
318.78	0.969
318.99	0.999
319.20	0.995
319.41	0.966
319.62	0.969
319.83	0.982
320.04	0.978
320.25	0.966
320.46	0.938
320.67	0.944
320.88	0.941
321.09	0.929
321.30	0.916
321.51	0.930
321.72	0.929
321.93	0.912
322.14	0.906
322.35	0.930
322.56	0.930
322.77	0.917
322.98	0.927
323.19	0.937
323.40	0.942
323.61	0.923
323.82	0.921
324.03	0.926
324.24	0.924
324.45	0.910
324.66	0.894
324.87	0.892
325.08	0.893
325.29	0.874
325.50	0.867
325.71	0.872
325.92	0.880
326.13	0.865
326.34	0.864
326.55	0.873
326.76	0.874
326.97	0.863
327.18	0.858
327.39	0.881
327.60	0.882
327.80	0.881
328.01	0.880
328.22	0.880
328.43	0.885
328.64	0.875
328.85	0.877
329.06	0.880
329.27	0.881
329.48	0.875
329.69	0.857
329.90	0.867
330.11	0.861
330.32	0.853
330.53	0.848
330.74	0.847
330.95	0.846
331.16	0.832
331.37	0.839
331.58	0.841
331.79	0.842
332.00	0.832
332.21	0.827
332.42	0.833
332.63	0.825
332.83	0.820
333.04	0.823
333.25	0.835
333.46	0.834
333.67	0.820
333.88	0.823
334.09	0.832
334.30	0.830
334.51	0.821
334.72	0.817
334.93	0.821
335.14	0.821
335.35	0.814
335.56	0.811
335.77	0.819
335.98	0.818
336.18	0.810
336.39	0.803
336.60	0.807
336.81	0.805
337.02	0.804
337.23	0.807
337.44	0.810
337.65	0.811
337.86	0.801
338.07	0.797
338.28	0.803
338.49	0.802
338.70	0.794
338.91	0.801
339.11	0.809
339.32	0.805
339.53	0.794
339.74	0.791
339.95	0.789
340.16	0.788
340.37	0.779
340.58	0.777
340.79	0.783
341.00	0.783
341.21	0.772
341.41	0.774
341.62	0.776
341.83	0.777
342.04	0.772
342.25	0.782
342.46	0.788
342.67	0.787
342.88	0.779
343.09	0.778
343.30	0.786
343.50	0.788
343.71	0.778
343.92	0.777
344.13	0.784
344.34	0.783
344.55	0.768
344.76	0.766
344.97	0.771
345.18	0.771
345.38	0.768
345.59	0.763
345.80	0.764
346.01	0.762
346.22	0.758
346.43	0.752
346.64	0.762
346.85	0.762
347.06	0.755
347.26	0.756
347.47	0.760
347.68	0.755
347.89	0.751
348.10	0.747
348.31	0.754
348.52	0.753
348.73	0.749
348.93	0.745
349.14	0.747
349.35	0.748
349.56	0.741
349.77	0.736
349.98	0.743
350.19	0.741
350.39	0.736
350.60	0.731
350.81	0.746
351.02	0.745
351.23	0.740
351.44	0.743
351.65	0.746
351.86	0.744
352.06	0.743
352.27	0.743
352.48	0.745
352.69	0.744
352.90	0.739
353.11	0.728
353.31	0.735
353.52	0.731
353.73	0.723
353.94	0.724
354.15	0.731
354.36	0.730
354.57	0.721
354.77	0.723
354.98	0.725
355.19	0.725
355.40	0.724
355.61	0.730
355.82	0.736
356.02	0.735
356.23	0.729
356.44	0.731
356.65	0.735
356.86	0.736
357.07	0.730
357.27	0.732
357.48	0.736
357.69	0.732
357.90	0.717
358.11	0.714
358.32	0.719
358.52	0.721
358.73	0.712
358.94	0.714
359.15	0.719
359.36	0.719
359.56	0.714
359.77	0.710
359.98	0.718
360.19	0.718
360.40	0.714
360.61	0.714
360.81	0.714
361.02	0.714
361.23	0.705
361.44	0.705
361.65	0.706
361.85	0.706
362.06	0.703
362.27	0.706
362.48	0.706
362.69	0.708
362.89	0.702
363.10	0.704
363.31	0.709
363.52	0.712
363.73	0.706
363.93	0.706
364.14	0.710
364.35	0.712
364.56	0.701
364.77	0.703
364.97	0.707
365.18	0.707
365.39	0.701
365.60	0.698
365.81	0.700
366.01	0.700
366.22	0.697
366.43	0.697
366.64	0.700
366.84	0.705
367.05	0.701
367.26	0.700
367.47	0.703
367.68	0.703
367.88	0.699
368.09	0.697
368.30	0.701
368.51	0.700
368.71	0.697
368.92	0.701
369.13	0.700
369.34	0.700
369.55	0.700
369.75	0.699
369.96	0.707
370.17	0.708
370.38	0.703
370.58	0.703
370.79	0.709
371.00	0.708
371.21	0.700
371.41	0.706
371.62	0.710
371.83	0.705
372.04	0.702
372.24	0.695
372.45	0.697
372.66	0.698
372.87	0.695
373.07	0.692
373.28	0.693
373.49	0.696
373.70	0.687
373.90	0.686
374.11	0.695
374.32	0.694
374.53	0.693
374.73	0.694
374.94	0.697
375.15	0.697
375.36	0.693
375.56	0.702
375.77	0.702
375.98	0.702
376.19	0.700
376.39	0.693
376.60	0.697
376.81	0.697
377.02	0.694
377.22	0.693
377.43	0.693
377.64	0.693
377.84	0.684
378.05	0.688
378.26	0.695
378.47	0.693
378.67	0.690
378.88	0.688
379.09	0.689
379.30	0.689
379.50	0.686
379.71	0.689
379.92	0.692
380.12	0.692
380.33	0.682
380.54	0.679
380.75	0.686
380.95	0.686
381.16	0.683
381.37	0.684
381.57	0.687
381.78	0.687
381.99	0.687
382.20	0.687
382.40	0.689
382.61	0.691
382.82	0.686
383.02	0.680
383.23	0.683
383.44	0.684
383.64	0.681
383.85	0.683
384.06	0.686
384.27	0.683
384.47	0.680
384.68	0.680
384.89	0.687
385.09	0.686
385.30	0.685
385.51	0.684
385.71	0.687
385.92	0.687
386.13	0.685
386.33	0.686
386.54	0.688
386.75	0.687
386.95	0.682
387.16	0.677
387.37	0.680
387.58	0.680
387.78	0.677
387.99	0.674
388.20	0.677
388.40	0.674
388.61	0.670
388.82	0.672
389.02	0.674
389.23	0.675
389.44	0.673
389.64	0.673
389.85	0.684
390.06	0.683
390.26	0.683
390.47	0.682
390.68	0.685
390.88	0.683
391.09	0.679
391.30	0.678
391.50	0.679
391.71	0.678
391.92	0.675
392.12	0.667
392.33	0.668
392.53	0.668
392.74	0.668
392.95	0.667
393.15	0.671
393.36	0.672
393.57	0.669
393.77	0.672
393.98	0.675
394.19	0.675
394.39	0.674
394.60	0.675
394.81	0.677
395.01	0.675
395.22	0.672
395.43	0.673
395.63	0.678
395.84	0.679
396.04	0.674
396.25	0.676
396.46	0.679
396.66	0.676
396.87	0.673
397.08	0.670
397.28	0.673
397.49	0.674
397.69	0.669
397.90	0.665
398.11	0.666
398.31	0.666
398.52	0.662
398.73	0.662
398.93	0.662
399.14	0.661
399.34	0.659
399.55	0.660
399.76	0.660
399.96	0.661
400.17	0.660
400.37	0.658
400.58	0.665
400.79	0.666
400.99	0.664
401.20	0.669
401.41	0.672
401.61	0.673
401.82	0.677
402.02	0.677
402.23	0.678
402.44	0.677
402.64	0.677
402.85	0.671
403.05	0.670
403.26	0.669
403.47	0.662
403.67	0.661
403.88	0.662
404.08	0.656
404.29	0.654
404.50	0.654
404.70	0.655
404.91	0.654
405.11	0.651
405.32	0.652
405.52	0.653
405.73	0.653
405.94	0.651
406.14	0.653
406.35	0.656
406.55	0.656
406.76	0.653
406.97	0.653
407.17	0.656
407.38	0.655
407.58	0.653
407.79	0.655
407.99	0.657
408.20	0.658
408.41	0.653
408.61	0.651
408.82	0.652
409.02	0.652
409.23	0.649
409.43	0.649
409.64	0.650
409.84	0.649
410.05	0.646
410.26	0.645
410.46	0.645
410.67	0.644
410.87	0.646
411.08	0.647
411.28	0.649
411.49	0.650
411.69	0.647
411.90	0.649
412.11	0.650
412.31	0.651
412.52	0.649
412.72	0.650
412.93	0.652
413.13	0.650
413.34	0.646
413.54	0.646
413.75	0.648
413.95	0.648
414.16	0.644
414.37	0.647
414.57	0.648
414.78	0.651
414.98	0.648
415.19	0.650
415.39	0.648
415.60	0.650
415.80	0.650
416.01	0.649
416.21	0.651
416.42	0.651
416.62	0.646
416.83	0.646
417.03	0.646
417.24	0.646
417.44	0.643
417.65	0.642
417.86	0.643
418.06	0.641
418.27	0.639
418.47	0.640
418.68	0.642
418.88	0.642
419.09	0.640
419.29	0.640
419.50	0.642
419.70	0.641
419.91	0.640
420.11	0.638
420.32	0.641
420.52	0.641
420.73	0.639
420.93	0.640
421.14	0.642
421.34	0.641
421.55	0.638
421.75	0.638
421.96	0.639
422.16	0.639
422.37	0.638
422.57	0.636
422.78	0.637
422.98	0.634
423.19	0.632
423.39	0.631
423.60	0.635
423.80	0.637
424.01	0.635
424.21	0.638
424.42	0.639
424.62	0.638
424.83	0.637
425.03	0.638
425.23	0.641
425.44	0.642
425.64	0.642
425.85	0.641
426.05	0.642
426.26	0.643
426.46	0.639
426.67	0.638
426.87	0.643
427.08	0.644
427.28	0.641
427.49	0.642
427.69	0.642
427.90	0.641
428.10	0.637
428.31	0.637
428.51	0.639
428.71	0.638
428.92	0.639
429.12	0.637
429.33	0.638
429.53	0.642
429.74	0.646
429.94	0.646
430.15	0.646
430.35	0.646
430.56	0.644
430.76	0.644
430.96	0.645
431.17	0.643
431.37	0.640
431.58	0.639
431.78	0.636
431.99	0.629
432.19	0.631
432.40	0.633
432.60	0.634
432.80	0.636
433.01	0.634
433.21	0.634
433.42	0.637
433.62	0.638
433.83	0.637
434.03	0.639
434.23	0.642
434.44	0.642
434.64	0.639
434.85	0.644
435.05	0.646
435.26	0.647
435.46	0.645
435.66	0.644
435.87	0.644
436.07	0.644
436.28	0.640
436.48	0.637
436.69	0.637
436.89	0.637
437.09	0.631
437.30	0.630
437.50	0.632
437.71	0.643
437.91	0.642
438.11	0.644
438.32	0.648
438.52	0.649
438.73	0.648
438.93	0.645
439.13	0.646
439.34	0.649
439.54	0.646
439.75	0.646
439.95	0.637
440.15	0.641
440.36	0.639
440.56	0.638
440.77	0.639
440.97	0.639
441.17	0.637
441.38	0.639
441.58	0.637
441.79	0.636
441.99	0.635
442.19	0.633
442.40	0.631
442.60	0.631
442.81	0.629
443.01	0.629
443.21	0.630
443.42	0.630
443.62	0.629
443.82	0.629
444.03	0.632
444.23	0.631
444.44	0.632
444.64	0.631
444.84	0.633
445.05	0.633
445.25	0.631
445.45	0.631
445.66	0.634
445.86	0.633
446.06	0.633
446.27	0.633
446.47	0.637
446.68	0.635
446.88	0.634
447.08	0.633
447.29	0.636
447.49	0.636
447.69	0.636
447.90	0.634
448.10	0.638
448.30	0.636
448.51	0.636
448.71	0.634
448.91	0.637
449.12	0.636
449.32	0.637
449.52	0.636
449.73	0.640
449.93	0.639
450.14	0.640
450.34	0.639
450.54	0.642
450.75	0.640
450.95	0.639
451.15	0.639
451.36	0.641
451.56	0.638
451.76	0.636
451.97	0.634
452.17	0.635
452.37	0.633
452.58	0.630
452.78	0.629
452.98	0.632
453.19	0.631
453.39	0.632
453.59	0.631
453.79	0.633
454.00	0.633
454.20	0.632
454.40	0.632
454.61	0.635
454.81	0.636
455.01	0.634
455.22	0.635
455.42	0.637
455.62	0.635
455.83	0.634
456.03	0.637
456.23	0.639
456.44	0.640
456.64	0.638
456.84	0.638
457.04	0.640
457.25	0.638
457.45	0.635
457.65	0.634
457.86	0.636
458.06	0.634
458.26	0.629
458.47	0.629
458.67	0.630
458.87	0.631
459.07	0.628
459.28	0.630
459.48	0.633
459.68	0.633
459.89	0.631
