SpectraSuite Data File
++++++++++++++++++++++++++++++++++++
Date: Fri Jun 19 14:07:21 CEST 2015
User: introlabs
Dark Spectrum Present: Yes
Reference Spectrum Present: Yes
Number of Sampled Component Spectra: 1
Spectrometers: USB4H08886
Integration Time (usec): 745692 (USB4H08886)
Spectra Averaged: 5 (USB4H08886)
Boxcar Smoothing: 5 (USB4H08886)
Correct for Electrical Dark: Yes (USB4H08886)
Strobe/Lamp Enabled: No (USB4H08886)
Correct for Detector Non-linearity: Yes (USB4H08886)
Correct for Stray Light: Yes (USB4H08886)
Number of Pixels in Processed Spectrum: 3648
>>>>>Begin Processed Spectral Data<<<<<
178.14	-0.000
178.36	-0.000
178.57	-0.000
178.79	-0.000
179.01	-0.000
179.22	-0.000
179.44	-0.000
179.65	-0.000
179.87	-0.000
180.08	-0.000
180.30	-0.000
180.52	-0.000
180.73	-0.000
180.95	-0.000
181.16	-0.000
181.38	-0.000
181.59	-0.000
181.81	-0.000
182.03	-0.000
182.24	-0.000
182.46	-0.000
182.67	-0.000
182.89	-0.000
183.10	-0.000
183.32	-0.000
183.54	-0.000
183.75	-0.000
183.97	-0.000
184.18	-0.000
184.40	-0.000
184.61	-0.000
184.83	-0.000
185.04	-0.000
185.26	-0.000
185.48	-0.000
185.69	-0.000
185.91	-0.000
186.12	-0.000
186.34	-0.000
186.55	-0.000
186.77	-0.000
186.98	-0.000
187.20	-0.000
187.42	-0.000
187.63	-0.000
187.85	-0.000
188.06	-0.000
188.28	-0.000
188.49	-0.000
188.71	-0.000
188.92	-0.000
189.14	-0.000
189.36	-0.000
189.57	-0.000
189.79	-0.000
190.00	-0.000
190.22	-0.000
190.43	-0.000
190.65	-0.000
190.86	-0.000
191.08	-0.000
191.29	-0.000
191.51	-0.000
191.72	-0.000
191.94	-0.000
192.16	-0.000
192.37	-0.000
192.59	-0.000
192.80	-0.000
193.02	-0.000
193.23	-0.000
193.45	-0.000
193.66	-0.000
193.88	-0.000
194.09	-0.000
194.31	-0.000
194.52	-0.000
194.74	-0.000
194.95	-0.000
195.17	-0.000
195.38	-0.000
195.60	-0.000
195.81	-0.000
196.03	-0.000
196.25	-0.000
196.46	-0.000
196.68	-0.000
196.89	-0.000
197.11	-0.000
197.32	-0.000
197.54	-0.000
197.75	-0.000
197.97	-0.000
198.18	-0.000
198.40	-0.000
198.61	-0.000
198.83	-0.000
199.04	-0.000
199.26	-0.000
199.47	-0.000
199.69	-0.000
199.90	-0.000
200.12	-0.000
200.33	-0.000
200.55	-0.000
200.76	-0.000
200.98	-0.000
201.19	-0.000
201.41	-0.000
201.62	-0.000
201.84	-0.000
202.05	-0.000
202.27	-0.000
202.48	-0.000
202.70	-0.000
202.91	-0.000
203.13	-0.000
203.34	-0.000
203.56	-0.000
203.77	-0.000
203.99	-0.000
204.20	-0.000
204.42	-0.000
204.63	-0.000
204.85	-0.000
205.06	-0.000
205.28	-0.000
205.49	-0.000
205.71	-0.000
205.92	-0.000
206.14	-0.000
206.35	-0.000
206.56	-0.000
206.78	-0.000
206.99	-0.000
207.21	-0.000
207.42	-0.000
207.64	-0.000
207.85	-0.000
208.07	-0.000
208.28	-0.000
208.50	-0.000
208.71	-0.000
208.93	-0.000
209.14	-0.000
209.36	-0.000
209.57	-0.000
209.79	-0.000
210.00	-0.000
210.22	-0.000
210.43	-0.000
210.64	-0.000
210.86	-0.000
211.07	-0.000
211.29	-0.000
211.50	-0.000
211.72	-0.000
211.93	-0.000
212.15	-0.000
212.36	-0.000
212.58	-0.000
212.79	-0.000
213.01	-0.000
213.22	-0.000
213.43	-0.000
213.65	-0.000
213.86	-0.000
214.08	-0.000
214.29	-0.000
214.51	-0.000
214.72	-0.000
214.94	-0.000
215.15	-0.000
215.36	-0.000
215.58	-0.000
215.79	-0.000
216.01	-0.000
216.22	-0.000
216.44	-0.000
216.65	-0.000
216.87	-0.000
217.08	-0.000
217.29	-0.000
217.51	-0.000
217.72	-0.000
217.94	-0.000
218.15	-0.000
218.37	-0.000
218.58	-0.000
218.80	-0.000
219.01	-0.000
219.22	-0.000
219.44	-0.000
219.65	-0.000
219.87	-0.000
220.08	-0.000
220.30	-0.000
220.51	-0.000
220.72	-0.000
220.94	-0.000
221.15	-0.000
221.37	-0.000
221.58	-0.000
221.79	-0.000
222.01	-0.000
222.22	-0.000
222.44	-0.000
222.65	-0.000
222.87	-0.000
223.08	-0.000
223.29	-0.000
223.51	-0.000
223.72	-0.000
223.94	-0.000
224.15	-0.000
224.36	-0.000
224.58	-0.000
224.79	-0.000
225.01	-0.000
225.22	-0.000
225.44	-0.000
225.65	-0.000
225.86	-0.000
226.08	-0.000
226.29	-0.000
226.51	-0.000
226.72	-0.000
226.93	-0.000
227.15	-0.000
227.36	-0.000
227.58	-0.000
227.79	-0.000
228.00	-0.000
228.22	-0.000
228.43	-0.000
228.65	-0.000
228.86	-0.000
229.07	-0.000
229.29	-0.000
229.50	-0.000
229.72	-0.000
229.93	-0.000
230.14	-0.000
230.36	-0.000
230.57	-0.000
230.78	-0.000
231.00	-0.000
231.21	-0.000
231.43	-0.000
231.64	-0.000
231.85	-0.000
232.07	-0.000
232.28	-0.000
232.50	-0.000
232.71	-0.000
232.92	-0.000
233.14	-0.000
233.35	-0.000
233.56	-0.000
233.78	-0.000
233.99	-0.000
234.21	-0.000
234.42	-0.000
234.63	-0.000
234.85	-0.000
235.06	-0.000
235.27	-0.000
235.49	-0.000
235.70	-0.000
235.91	-0.000
236.13	-0.000
236.34	-0.000
236.56	-0.000
236.77	-0.000
236.98	-0.000
237.20	-0.000
237.41	-0.000
237.62	-0.000
237.84	-0.000
238.05	-0.000
238.26	-0.000
238.48	-0.000
238.69	-0.000
238.91	-0.000
239.12	-0.000
239.33	-0.000
239.55	-0.000
239.76	-0.000
239.97	-0.000
240.19	-0.000
240.40	-0.000
240.61	-0.000
240.83	-0.000
241.04	-0.000
241.25	-0.000
241.47	-0.000
241.68	-0.000
241.89	-0.000
242.11	-0.000
242.32	-0.000
242.53	-0.000
242.75	-0.000
242.96	-0.000
243.17	-0.000
243.39	-0.000
243.60	-0.000
243.81	-0.000
244.03	-0.000
244.24	-0.000
244.45	-0.000
244.67	-0.000
244.88	-0.000
245.09	-0.000
245.31	-0.000
245.52	-0.000
245.73	-0.000
245.95	-0.000
246.16	-0.000
246.37	-0.000
246.59	-0.000
246.80	-0.000
247.01	-0.000
247.23	-0.000
247.44	-0.000
247.65	-0.000
247.87	-0.000
248.08	-0.000
248.29	-0.000
248.51	-0.000
248.72	-0.000
248.93	-0.000
249.15	-0.000
249.36	-0.000
249.57	-0.000
249.78	-0.000
250.00	-0.000
250.21	-0.000
250.42	-0.000
250.64	-0.000
250.85	-0.000
251.06	-0.000
251.28	-0.000
251.49	-0.000
251.70	-0.000
251.92	-0.000
252.13	-0.000
252.34	-0.000
252.55	-0.000
252.77	-0.000
252.98	-0.000
253.19	-0.000
253.41	-0.000
253.62	-0.000
253.83	-0.000
254.05	-0.000
254.26	-0.000
254.47	-0.000
254.68	-0.000
254.90	-0.000
255.11	-0.000
255.32	-0.000
255.54	-0.000
255.75	-0.000
255.96	-0.000
256.17	-0.000
256.39	-0.000
256.60	-0.000
256.81	-0.000
257.03	-0.000
257.24	-0.000
257.45	-0.000
257.66	-0.000
257.88	-0.000
258.09	-0.000
258.30	-0.000
258.51	-0.000
258.73	-0.000
258.94	-0.000
259.15	-0.000
259.37	-0.000
259.58	-0.000
259.79	-0.000
260.00	-0.000
260.22	-0.000
260.43	-0.000
260.64	-0.000
260.85	-0.000
261.07	-0.000
261.28	-0.000
261.49	-0.000
261.71	-0.000
261.92	-0.000
262.13	-0.000
262.34	-0.000
262.56	-0.000
262.77	-0.000
262.98	-0.000
263.19	-0.000
263.41	-0.000
263.62	-0.000
263.83	-0.000
264.04	-0.000
264.26	-0.000
264.47	-0.000
264.68	-0.000
264.89	-0.000
265.11	-0.000
265.32	-0.000
265.53	-0.000
265.74	-0.000
265.96	-0.000
266.17	-0.000
266.38	-0.000
266.59	-0.000
266.81	-0.000
267.02	-0.000
267.23	-0.000
267.44	-0.000
267.65	-0.000
267.87	-0.000
268.08	-0.000
268.29	-0.000
268.50	-0.000
268.72	-0.000
268.93	-0.000
269.14	-0.000
269.35	-0.000
269.57	-0.000
269.78	-0.000
269.99	-0.000
270.20	-0.000
270.41	-0.000
270.63	-0.000
270.84	-0.000
271.05	-0.000
271.26	-0.000
271.48	-0.000
271.69	-0.000
271.90	-0.000
272.11	-0.000
272.32	-0.000
272.54	-0.000
272.75	-0.000
272.96	-0.000
273.17	-0.000
273.39	-0.000
273.60	-0.000
273.81	-0.000
274.02	-0.000
274.23	-0.000
274.45	-0.000
274.66	-0.000
274.87	-0.000
275.08	-0.000
275.29	-0.000
275.51	-0.000
275.72	-0.000
275.93	-0.000
276.14	-0.000
276.35	-0.000
276.57	-0.000
276.78	-0.000
276.99	-0.000
277.20	-0.000
277.41	-0.000
277.63	-0.000
277.84	-0.000
278.05	-0.000
278.26	-0.000
278.47	-0.000
278.69	-0.000
278.90	-0.000
279.11	-0.000
279.32	-0.000
279.53	-0.000
279.74	-0.000
279.96	-0.000
280.17	-0.000
280.38	-0.000
280.59	-0.000
280.80	-0.000
281.02	-0.000
281.23	-0.000
281.44	-0.000
281.65	-0.000
281.86	-0.000
282.07	-0.000
282.29	-0.000
282.50	-0.000
282.71	-0.000
282.92	-0.000
283.13	-0.000
283.35	-0.000
283.56	-0.000
283.77	-0.000
283.98	-0.000
284.19	-0.000
284.40	-0.000
284.62	-0.000
284.83	-0.000
285.04	-0.000
285.25	-0.000
285.46	-0.000
285.67	-0.000
285.88	-0.000
286.10	-0.000
286.31	-0.000
286.52	-0.000
286.73	-0.000
286.94	-0.000
287.15	-0.000
287.37	-0.000
287.58	-0.000
287.79	-0.000
288.00	-0.000
288.21	-0.000
288.42	-0.000
288.63	-0.000
288.85	-0.000
289.06	-0.000
289.27	-0.000
289.48	-0.000
289.69	-0.000
289.90	-0.000
290.11	-0.000
290.33	-0.000
290.54	-0.000
290.75	-0.000
290.96	-0.000
291.17	-0.000
291.38	-0.000
291.59	-0.000
291.81	-0.000
292.02	-0.000
292.23	-0.000
292.44	-0.000
292.65	-0.000
292.86	-0.000
293.07	-0.000
293.28	-0.000
293.50	-0.000
293.71	-0.000
293.92	-0.000
294.13	-0.000
294.34	-0.000
294.55	-0.000
294.76	-0.000
294.97	-0.000
295.19	-0.000
295.40	-0.000
295.61	-0.000
295.82	-0.000
296.03	-0.000
296.24	-0.000
296.45	-0.000
296.66	2.266
296.87	2.359
297.09	2.766
297.30	-0.000
297.51	2.161
297.72	2.045
297.93	2.315
298.14	2.197
298.35	2.079
298.56	2.017
298.77	2.417
298.99	2.294
299.20	2.183
299.41	2.117
299.62	2.015
299.83	1.968
300.04	1.834
300.25	1.813
300.46	1.883
300.67	1.834
300.88	1.729
301.10	1.718
301.31	1.837
301.52	1.729
301.73	1.639
301.94	1.631
302.15	1.654
302.36	1.587
302.57	1.506
302.78	1.511
302.99	1.563
303.20	1.588
303.41	1.477
303.63	1.452
303.84	1.461
304.05	1.455
304.26	1.391
304.47	1.392
304.68	1.398
304.89	1.382
305.10	1.334
305.31	1.320
305.52	1.368
305.73	1.356
305.94	1.313
306.15	1.308
306.37	1.330
306.58	1.335
306.79	1.298
307.00	1.322
307.21	1.373
307.42	1.364
307.63	1.322
307.84	1.283
308.05	1.324
308.26	1.322
308.47	1.294
308.68	1.294
308.89	1.298
309.10	1.298
309.31	1.253
309.52	1.238
309.73	1.255
309.95	1.248
310.16	1.218
310.37	1.207
310.58	1.227
310.79	1.224
311.00	1.217
311.21	1.216
311.42	1.215
311.63	1.209
311.84	1.189
312.05	1.187
312.26	1.210
312.47	1.222
312.68	1.196
312.89	1.176
313.10	1.184
313.31	1.158
313.52	1.159
313.73	1.161
313.94	1.165
314.15	1.148
314.36	1.125
314.57	1.116
314.78	1.102
314.99	1.095
315.21	1.082
315.42	1.088
315.63	1.099
315.84	1.076
316.05	1.064
316.26	1.072
316.47	1.089
316.68	1.084
316.89	1.065
317.10	1.088
317.31	1.094
317.52	1.096
317.73	1.071
317.94	1.072
318.15	1.117
318.36	1.116
318.57	1.096
318.78	1.086
318.99	1.121
319.20	1.119
319.41	1.082
319.62	1.084
319.83	1.101
320.04	1.097
320.25	1.082
320.46	1.046
320.67	1.051
320.88	1.047
321.09	1.033
321.30	1.018
321.51	1.033
321.72	1.031
321.93	1.014
322.14	1.005
322.35	1.033
322.56	1.036
322.77	1.021
322.98	1.031
323.19	1.040
323.40	1.047
323.61	1.026
323.82	1.021
324.03	1.027
324.24	1.025
324.45	1.011
324.66	0.991
324.87	0.986
325.08	0.987
325.29	0.967
325.50	0.958
325.71	0.964
325.92	0.972
326.13	0.957
326.34	0.957
326.55	0.967
326.76	0.964
326.97	0.953
327.18	0.948
327.39	0.974
327.60	0.975
327.80	0.976
328.01	0.973
328.22	0.973
328.43	0.977
328.64	0.965
328.85	0.970
329.06	0.971
329.27	0.971
329.48	0.967
329.69	0.946
329.90	0.957
330.11	0.950
330.32	0.943
330.53	0.936
330.74	0.936
330.95	0.935
331.16	0.918
331.37	0.927
331.58	0.927
331.79	0.926
332.00	0.917
332.21	0.912
332.42	0.916
332.63	0.906
332.83	0.901
333.04	0.902
333.25	0.914
333.46	0.912
333.67	0.898
333.88	0.901
334.09	0.912
334.30	0.910
334.51	0.900
334.72	0.895
334.93	0.899
335.14	0.898
335.35	0.892
335.56	0.887
335.77	0.897
335.98	0.896
336.18	0.888
336.39	0.880
336.60	0.883
336.81	0.882
337.02	0.880
337.23	0.885
337.44	0.888
337.65	0.890
337.86	0.880
338.07	0.874
338.28	0.880
338.49	0.878
338.70	0.871
338.91	0.878
339.11	0.885
339.32	0.882
339.53	0.869
339.74	0.866
339.95	0.864
340.16	0.862
340.37	0.853
340.58	0.851
340.79	0.855
341.00	0.855
341.21	0.844
341.41	0.845
341.62	0.846
341.83	0.847
342.04	0.843
342.25	0.854
342.46	0.859
342.67	0.858
342.88	0.851
343.09	0.849
343.30	0.857
343.50	0.860
343.71	0.849
343.92	0.849
344.13	0.853
344.34	0.852
344.55	0.835
344.76	0.833
344.97	0.838
345.18	0.837
345.38	0.835
345.59	0.829
345.80	0.828
346.01	0.828
346.22	0.822
346.43	0.816
346.64	0.825
346.85	0.824
347.06	0.817
347.26	0.818
347.47	0.822
347.68	0.816
347.89	0.814
348.10	0.808
348.31	0.815
348.52	0.813
348.73	0.812
348.93	0.808
349.14	0.810
349.35	0.809
349.56	0.803
349.77	0.799
349.98	0.805
350.19	0.802
350.39	0.797
350.60	0.792
350.81	0.809
351.02	0.807
351.23	0.802
351.44	0.804
351.65	0.807
351.86	0.804
352.06	0.803
352.27	0.802
352.48	0.803
352.69	0.803
352.90	0.798
353.11	0.785
353.31	0.792
353.52	0.788
353.73	0.780
353.94	0.781
354.15	0.787
354.36	0.786
354.57	0.778
354.77	0.780
354.98	0.779
355.19	0.779
355.40	0.778
355.61	0.784
355.82	0.788
356.02	0.789
356.23	0.782
356.44	0.784
356.65	0.787
356.86	0.788
357.07	0.782
357.27	0.786
357.48	0.787
357.69	0.783
357.90	0.767
358.11	0.763
358.32	0.766
358.52	0.769
358.73	0.759
358.94	0.762
359.15	0.766
359.36	0.767
359.56	0.761
359.77	0.758
359.98	0.766
360.19	0.766
360.40	0.762
360.61	0.763
360.81	0.763
361.02	0.763
361.23	0.756
361.44	0.754
361.65	0.754
361.85	0.754
362.06	0.752
362.27	0.754
362.48	0.755
362.69	0.758
362.89	0.752
363.10	0.754
363.31	0.759
363.52	0.761
363.73	0.756
363.93	0.757
364.14	0.759
364.35	0.761
364.56	0.750
364.77	0.751
364.97	0.753
365.18	0.753
365.39	0.748
365.60	0.745
365.81	0.746
366.01	0.745
366.22	0.742
366.43	0.741
366.64	0.744
366.84	0.749
367.05	0.746
367.26	0.746
367.47	0.748
367.68	0.748
367.88	0.744
368.09	0.741
368.30	0.744
368.51	0.744
368.71	0.743
368.92	0.747
369.13	0.746
369.34	0.745
369.55	0.744
369.75	0.743
369.96	0.751
370.17	0.750
370.38	0.747
370.58	0.746
370.79	0.752
371.00	0.751
371.21	0.741
371.41	0.746
371.62	0.749
371.83	0.745
372.04	0.744
372.24	0.736
372.45	0.737
372.66	0.738
372.87	0.735
373.07	0.731
373.28	0.732
373.49	0.737
373.70	0.727
373.90	0.726
374.11	0.735
374.32	0.734
374.53	0.733
374.73	0.734
374.94	0.737
375.15	0.737
375.36	0.735
375.56	0.744
375.77	0.743
375.98	0.743
376.19	0.740
376.39	0.733
376.60	0.737
376.81	0.738
377.02	0.736
377.22	0.734
377.43	0.733
377.64	0.733
377.84	0.724
378.05	0.729
378.26	0.735
378.47	0.734
378.67	0.731
378.88	0.728
379.09	0.729
379.30	0.729
379.50	0.727
379.71	0.730
379.92	0.732
380.12	0.732
380.33	0.723
380.54	0.720
380.75	0.727
380.95	0.727
381.16	0.725
381.37	0.725
381.57	0.727
381.78	0.728
381.99	0.727
382.20	0.727
382.40	0.731
382.61	0.731
382.82	0.727
383.02	0.721
383.23	0.724
383.44	0.724
383.64	0.722
383.85	0.725
384.06	0.727
384.27	0.725
384.47	0.722
384.68	0.722
384.89	0.728
385.09	0.728
385.30	0.726
385.51	0.725
385.71	0.728
385.92	0.728
386.13	0.727
386.33	0.729
386.54	0.730
386.75	0.729
386.95	0.725
387.16	0.720
387.37	0.723
387.58	0.723
387.78	0.721
387.99	0.718
388.20	0.721
388.40	0.717
388.61	0.713
388.82	0.716
389.02	0.719
389.23	0.719
389.44	0.717
389.64	0.718
389.85	0.729
390.06	0.729
390.26	0.729
390.47	0.728
390.68	0.731
390.88	0.729
391.09	0.724
391.30	0.723
391.50	0.724
391.71	0.725
391.92	0.722
392.12	0.714
392.33	0.715
392.53	0.715
392.74	0.715
392.95	0.715
393.15	0.718
393.36	0.721
393.57	0.718
393.77	0.721
393.98	0.722
394.19	0.721
394.39	0.720
394.60	0.721
394.81	0.722
395.01	0.719
395.22	0.717
395.43	0.718
395.63	0.722
395.84	0.723
396.04	0.719
396.25	0.721
396.46	0.723
396.66	0.722
396.87	0.719
397.08	0.717
397.28	0.719
397.49	0.721
397.69	0.716
397.90	0.712
398.11	0.713
398.31	0.713
398.52	0.710
398.73	0.711
398.93	0.710
399.14	0.709
399.34	0.708
399.55	0.709
399.76	0.710
399.96	0.711
400.17	0.709
400.37	0.708
400.58	0.716
400.79	0.717
400.99	0.714
401.20	0.720
401.41	0.723
401.61	0.724
401.82	0.729
402.02	0.728
402.23	0.730
402.44	0.729
402.64	0.729
402.85	0.723
403.05	0.723
403.26	0.722
403.47	0.715
403.67	0.714
403.88	0.714
404.08	0.708
404.29	0.707
404.50	0.706
404.70	0.706
404.91	0.705
405.11	0.703
405.32	0.703
405.52	0.703
405.73	0.702
405.94	0.701
406.14	0.704
406.35	0.705
406.55	0.704
406.76	0.702
406.97	0.703
407.17	0.706
407.38	0.706
407.58	0.704
407.79	0.706
407.99	0.709
408.20	0.710
408.41	0.705
408.61	0.704
408.82	0.705
409.02	0.704
409.23	0.702
409.43	0.701
409.64	0.702
409.84	0.702
410.05	0.699
410.26	0.697
410.46	0.697
410.67	0.697
410.87	0.698
411.08	0.700
411.28	0.702
411.49	0.704
411.69	0.701
411.90	0.703
412.11	0.705
412.31	0.706
412.52	0.704
412.72	0.705
412.93	0.706
413.13	0.704
413.34	0.700
413.54	0.701
413.75	0.702
413.95	0.702
414.16	0.698
414.37	0.700
414.57	0.700
414.78	0.703
414.98	0.701
415.19	0.702
415.39	0.700
415.60	0.702
415.80	0.701
416.01	0.700
416.21	0.702
416.42	0.702
416.62	0.697
416.83	0.698
417.03	0.697
417.24	0.698
417.44	0.695
417.65	0.694
417.86	0.695
418.06	0.693
418.27	0.691
418.47	0.692
418.68	0.693
418.88	0.693
419.09	0.691
419.29	0.692
419.50	0.692
419.70	0.692
419.91	0.691
420.11	0.688
420.32	0.691
420.52	0.691
420.73	0.689
420.93	0.690
421.14	0.692
421.34	0.691
421.55	0.687
421.75	0.687
421.96	0.689
422.16	0.689
422.37	0.688
422.57	0.685
422.78	0.687
422.98	0.684
423.19	0.681
423.39	0.679
423.60	0.683
423.80	0.684
424.01	0.683
424.21	0.685
424.42	0.686
424.62	0.686
424.83	0.685
425.03	0.686
425.23	0.688
425.44	0.689
425.64	0.690
425.85	0.688
426.05	0.689
426.26	0.690
426.46	0.686
426.67	0.685
426.87	0.691
427.08	0.691
427.28	0.688
427.49	0.689
427.69	0.690
427.90	0.688
428.10	0.686
428.31	0.685
428.51	0.687
428.71	0.686
428.92	0.687
429.12	0.684
429.33	0.685
429.53	0.689
429.74	0.693
429.94	0.693
430.15	0.693
430.35	0.692
430.56	0.689
430.76	0.688
430.96	0.689
431.17	0.686
431.37	0.682
431.58	0.681
431.78	0.677
431.99	0.671
432.19	0.673
432.40	0.675
432.60	0.675
432.80	0.678
433.01	0.677
433.21	0.677
433.42	0.680
433.62	0.680
433.83	0.680
434.03	0.682
434.23	0.686
434.44	0.684
434.64	0.682
434.85	0.687
435.05	0.688
435.26	0.688
435.46	0.687
435.66	0.686
435.87	0.686
436.07	0.686
436.28	0.682
436.48	0.679
436.69	0.678
436.89	0.678
437.09	0.672
437.30	0.671
437.50	0.671
437.71	0.683
437.91	0.682
438.11	0.684
438.32	0.688
438.52	0.688
438.73	0.688
438.93	0.686
439.13	0.687
439.34	0.690
439.54	0.688
439.75	0.688
439.95	0.677
440.15	0.682
440.36	0.680
440.56	0.677
440.77	0.679
440.97	0.678
441.17	0.677
441.38	0.677
441.58	0.675
441.79	0.675
441.99	0.673
442.19	0.672
442.40	0.670
442.60	0.669
442.81	0.667
443.01	0.667
443.21	0.668
443.42	0.667
443.62	0.665
443.82	0.665
444.03	0.667
444.23	0.667
444.44	0.667
444.64	0.666
444.84	0.668
445.05	0.668
445.25	0.665
445.45	0.665
445.66	0.668
445.86	0.667
446.06	0.668
446.27	0.667
446.47	0.670
446.68	0.668
446.88	0.667
447.08	0.666
447.29	0.668
447.49	0.669
447.69	0.668
447.90	0.667
448.10	0.671
448.30	0.668
448.51	0.670
448.71	0.667
448.91	0.669
449.12	0.668
449.32	0.670
449.52	0.668
449.73	0.672
449.93	0.671
450.14	0.672
450.34	0.671
450.54	0.673
450.75	0.670
450.95	0.670
451.15	0.669
451.36	0.673
451.56	0.669
451.76	0.668
451.97	0.665
452.17	0.666
452.37	0.664
452.58	0.661
452.78	0.660
452.98	0.663
453.19	0.662
453.39	0.663
453.59	0.662
453.79	0.663
454.00	0.663
454.20	0.662
454.40	0.663
454.61	0.664
454.81	0.665
455.01	0.664
455.22	0.664
455.42	0.666
455.62	0.664
455.83	0.663
456.03	0.666
456.23	0.667
456.44	0.668
456.64	0.667
456.84	0.667
457.04	0.668
457.25	0.668
457.45	0.664
457.65	0.664
457.86	0.665
458.06	0.664
458.26	0.659
458.47	0.658
458.67	0.659
458.87	0.659
459.07	0.657
459.28	0.658
459.48	0.660
459.68	0.660
459.89	0.659
