SpectraSuite Data File
++++++++++++++++++++++++++++++++++++
Date: Fri Jun 19 13:12:33 CEST 2015
User: introlabs
Dark Spectrum Present: Yes
Reference Spectrum Present: Yes
Number of Sampled Component Spectra: 1
Spectrometers: USB4H08886
Integration Time (usec): 745692 (USB4H08886)
Spectra Averaged: 5 (USB4H08886)
Boxcar Smoothing: 5 (USB4H08886)
Correct for Electrical Dark: Yes (USB4H08886)
Strobe/Lamp Enabled: No (USB4H08886)
Correct for Detector Non-linearity: Yes (USB4H08886)
Correct for Stray Light: Yes (USB4H08886)
Number of Pixels in Processed Spectrum: 3648
>>>>>Begin Processed Spectral Data<<<<<
178.14	-0.000
178.36	-0.000
178.57	-0.000
178.79	-0.000
179.01	-0.000
179.22	-0.000
179.44	-0.000
179.65	-0.000
179.87	-0.000
180.08	-0.000
180.30	-0.000
180.52	-0.000
180.73	-0.000
180.95	-0.000
181.16	-0.000
181.38	-0.000
181.59	-0.000
181.81	-0.000
182.03	-0.000
182.24	-0.000
182.46	-0.000
182.67	-0.000
182.89	-0.000
183.10	-0.000
183.32	-0.000
183.54	-0.000
183.75	-0.000
183.97	-0.000
184.18	-0.000
184.40	-0.000
184.61	-0.000
184.83	-0.000
185.04	-0.000
185.26	-0.000
185.48	-0.000
185.69	-0.000
185.91	-0.000
186.12	-0.000
186.34	-0.000
186.55	-0.000
186.77	-0.000
186.98	-0.000
187.20	-0.000
187.42	-0.000
187.63	-0.000
187.85	-0.000
188.06	-0.000
188.28	-0.000
188.49	-0.000
188.71	-0.000
188.92	-0.000
189.14	-0.000
189.36	-0.000
189.57	-0.000
189.79	-0.000
190.00	-0.000
190.22	-0.000
190.43	-0.000
190.65	-0.000
190.86	-0.000
191.08	-0.000
191.29	-0.000
191.51	-0.000
191.72	-0.000
191.94	-0.000
192.16	-0.000
192.37	-0.000
192.59	-0.000
192.80	-0.000
193.02	-0.000
193.23	-0.000
193.45	-0.000
193.66	-0.000
193.88	-0.000
194.09	-0.000
194.31	-0.000
194.52	-0.000
194.74	-0.000
194.95	-0.000
195.17	-0.000
195.38	-0.000
195.60	-0.000
195.81	-0.000
196.03	-0.000
196.25	-0.000
196.46	-0.000
196.68	-0.000
196.89	-0.000
197.11	-0.000
197.32	-0.000
197.54	-0.000
197.75	-0.000
197.97	-0.000
198.18	-0.000
198.40	-0.000
198.61	-0.000
198.83	-0.000
199.04	-0.000
199.26	-0.000
199.47	-0.000
199.69	-0.000
199.90	-0.000
200.12	-0.000
200.33	-0.000
200.55	-0.000
200.76	-0.000
200.98	-0.000
201.19	-0.000
201.41	-0.000
201.62	-0.000
201.84	-0.000
202.05	-0.000
202.27	-0.000
202.48	-0.000
202.70	-0.000
202.91	-0.000
203.13	-0.000
203.34	-0.000
203.56	-0.000
203.77	-0.000
203.99	-0.000
204.20	-0.000
204.42	-0.000
204.63	-0.000
204.85	-0.000
205.06	-0.000
205.28	-0.000
205.49	-0.000
205.71	-0.000
205.92	-0.000
206.14	-0.000
206.35	-0.000
206.56	-0.000
206.78	-0.000
206.99	-0.000
207.21	-0.000
207.42	-0.000
207.64	-0.000
207.85	-0.000
208.07	-0.000
208.28	-0.000
208.50	-0.000
208.71	-0.000
208.93	-0.000
209.14	-0.000
209.36	-0.000
209.57	-0.000
209.79	-0.000
210.00	-0.000
210.22	-0.000
210.43	-0.000
210.64	-0.000
210.86	-0.000
211.07	-0.000
211.29	-0.000
211.50	-0.000
211.72	-0.000
211.93	-0.000
212.15	-0.000
212.36	-0.000
212.58	-0.000
212.79	-0.000
213.01	-0.000
213.22	-0.000
213.43	-0.000
213.65	-0.000
213.86	-0.000
214.08	-0.000
214.29	-0.000
214.51	-0.000
214.72	-0.000
214.94	-0.000
215.15	-0.000
215.36	-0.000
215.58	-0.000
215.79	-0.000
216.01	-0.000
216.22	-0.000
216.44	-0.000
216.65	-0.000
216.87	-0.000
217.08	-0.000
217.29	-0.000
217.51	-0.000
217.72	-0.000
217.94	-0.000
218.15	-0.000
218.37	-0.000
218.58	-0.000
218.80	-0.000
219.01	-0.000
219.22	-0.000
219.44	-0.000
219.65	-0.000
219.87	-0.000
220.08	-0.000
220.30	-0.000
220.51	-0.000
220.72	-0.000
220.94	-0.000
221.15	-0.000
221.37	-0.000
221.58	-0.000
221.79	-0.000
222.01	-0.000
222.22	-0.000
222.44	-0.000
222.65	-0.000
222.87	-0.000
223.08	-0.000
223.29	-0.000
223.51	-0.000
223.72	-0.000
223.94	-0.000
224.15	-0.000
224.36	-0.000
224.58	-0.000
224.79	-0.000
225.01	-0.000
225.22	-0.000
225.44	-0.000
225.65	-0.000
225.86	-0.000
226.08	-0.000
226.29	-0.000
226.51	-0.000
226.72	-0.000
226.93	-0.000
227.15	-0.000
227.36	-0.000
227.58	-0.000
227.79	-0.000
228.00	-0.000
228.22	-0.000
228.43	-0.000
228.65	-0.000
228.86	-0.000
229.07	-0.000
229.29	-0.000
229.50	-0.000
229.72	-0.000
229.93	-0.000
230.14	-0.000
230.36	-0.000
230.57	-0.000
230.78	-0.000
231.00	-0.000
231.21	-0.000
231.43	-0.000
231.64	-0.000
231.85	-0.000
232.07	-0.000
232.28	-0.000
232.50	-0.000
232.71	-0.000
232.92	-0.000
233.14	-0.000
233.35	-0.000
233.56	-0.000
233.78	-0.000
233.99	-0.000
234.21	-0.000
234.42	-0.000
234.63	-0.000
234.85	-0.000
235.06	-0.000
235.27	-0.000
235.49	-0.000
235.70	-0.000
235.91	-0.000
236.13	-0.000
236.34	-0.000
236.56	-0.000
236.77	-0.000
236.98	-0.000
237.20	-0.000
237.41	-0.000
237.62	-0.000
237.84	-0.000
238.05	-0.000
238.26	-0.000
238.48	-0.000
238.69	-0.000
238.91	-0.000
239.12	-0.000
239.33	-0.000
239.55	-0.000
239.76	-0.000
239.97	-0.000
240.19	-0.000
240.40	-0.000
240.61	-0.000
240.83	-0.000
241.04	-0.000
241.25	-0.000
241.47	-0.000
241.68	-0.000
241.89	-0.000
242.11	-0.000
242.32	-0.000
242.53	-0.000
242.75	-0.000
242.96	-0.000
243.17	-0.000
243.39	-0.000
243.60	-0.000
243.81	-0.000
244.03	-0.000
244.24	-0.000
244.45	-0.000
244.67	-0.000
244.88	-0.000
245.09	-0.000
245.31	-0.000
245.52	-0.000
245.73	-0.000
245.95	-0.000
246.16	-0.000
246.37	-0.000
246.59	-0.000
246.80	-0.000
247.01	-0.000
247.23	-0.000
247.44	-0.000
247.65	-0.000
247.87	-0.000
248.08	-0.000
248.29	-0.000
248.51	-0.000
248.72	-0.000
248.93	-0.000
249.15	-0.000
249.36	-0.000
249.57	-0.000
249.78	-0.000
250.00	-0.000
250.21	-0.000
250.42	-0.000
250.64	-0.000
250.85	-0.000
251.06	-0.000
251.28	-0.000
251.49	-0.000
251.70	-0.000
251.92	-0.000
252.13	-0.000
252.34	-0.000
252.55	-0.000
252.77	-0.000
252.98	-0.000
253.19	-0.000
253.41	-0.000
253.62	-0.000
253.83	-0.000
254.05	-0.000
254.26	-0.000
254.47	-0.000
254.68	-0.000
254.90	-0.000
255.11	-0.000
255.32	-0.000
255.54	-0.000
255.75	-0.000
255.96	-0.000
256.17	-0.000
256.39	-0.000
256.60	-0.000
256.81	-0.000
257.03	-0.000
257.24	-0.000
257.45	-0.000
257.66	-0.000
257.88	-0.000
258.09	-0.000
258.30	-0.000
258.51	-0.000
258.73	-0.000
258.94	-0.000
259.15	-0.000
259.37	-0.000
259.58	-0.000
259.79	-0.000
260.00	-0.000
260.22	-0.000
260.43	-0.000
260.64	-0.000
260.85	-0.000
261.07	-0.000
261.28	-0.000
261.49	-0.000
261.71	-0.000
261.92	-0.000
262.13	-0.000
262.34	-0.000
262.56	-0.000
262.77	-0.000
262.98	-0.000
263.19	-0.000
263.41	-0.000
263.62	-0.000
263.83	-0.000
264.04	-0.000
264.26	-0.000
264.47	-0.000
264.68	-0.000
264.89	-0.000
265.11	-0.000
265.32	-0.000
265.53	-0.000
265.74	-0.000
265.96	-0.000
266.17	-0.000
266.38	-0.000
266.59	-0.000
266.81	-0.000
267.02	-0.000
267.23	-0.000
267.44	-0.000
267.65	-0.000
267.87	-0.000
268.08	-0.000
268.29	-0.000
268.50	-0.000
268.72	-0.000
268.93	-0.000
269.14	-0.000
269.35	-0.000
269.57	-0.000
269.78	-0.000
269.99	-0.000
270.20	-0.000
270.41	-0.000
270.63	-0.000
270.84	-0.000
271.05	-0.000
271.26	-0.000
271.48	-0.000
271.69	-0.000
271.90	-0.000
272.11	-0.000
272.32	-0.000
272.54	-0.000
272.75	-0.000
272.96	-0.000
273.17	-0.000
273.39	-0.000
273.60	-0.000
273.81	-0.000
274.02	-0.000
274.23	-0.000
274.45	-0.000
274.66	-0.000
274.87	-0.000
275.08	-0.000
275.29	-0.000
275.51	-0.000
275.72	-0.000
275.93	-0.000
276.14	-0.000
276.35	-0.000
276.57	-0.000
276.78	-0.000
276.99	-0.000
277.20	-0.000
277.41	-0.000
277.63	-0.000
277.84	-0.000
278.05	-0.000
278.26	-0.000
278.47	-0.000
278.69	-0.000
278.90	-0.000
279.11	-0.000
279.32	-0.000
279.53	-0.000
279.74	-0.000
279.96	-0.000
280.17	-0.000
280.38	-0.000
280.59	-0.000
280.80	-0.000
281.02	-0.000
281.23	-0.000
281.44	-0.000
281.65	-0.000
281.86	-0.000
282.07	-0.000
282.29	-0.000
282.50	-0.000
282.71	-0.000
282.92	-0.000
283.13	-0.000
283.35	-0.000
283.56	-0.000
283.77	-0.000
283.98	-0.000
284.19	-0.000
284.40	-0.000
284.62	-0.000
284.83	-0.000
285.04	-0.000
285.25	-0.000
285.46	-0.000
285.67	-0.000
285.88	-0.000
286.10	-0.000
286.31	-0.000
286.52	-0.000
286.73	-0.000
286.94	-0.000
287.15	-0.000
287.37	-0.000
287.58	-0.000
287.79	-0.000
288.00	-0.000
288.21	-0.000
288.42	-0.000
288.63	-0.000
288.85	-0.000
289.06	-0.000
289.27	-0.000
289.48	-0.000
289.69	-0.000
289.90	-0.000
290.11	-0.000
290.33	-0.000
290.54	-0.000
290.75	-0.000
290.96	-0.000
291.17	-0.000
291.38	-0.000
291.59	-0.000
291.81	-0.000
292.02	-0.000
292.23	-0.000
292.44	-0.000
292.65	-0.000
292.86	-0.000
293.07	-0.000
293.28	-0.000
293.50	-0.000
293.71	-0.000
293.92	-0.000
294.13	-0.000
294.34	-0.000
294.55	-0.000
294.76	-0.000
294.97	-0.000
295.19	-0.000
295.40	-0.000
295.61	-0.000
295.82	-0.000
296.03	-0.000
296.24	-0.000
296.45	-0.000
296.66	3.208
296.87	3.681
297.09	-0.000
297.30	-0.000
297.51	2.359
297.72	2.230
297.93	2.821
298.14	2.461
298.35	2.235
298.56	2.119
298.77	2.650
298.99	2.433
299.20	2.307
299.41	2.207
299.62	2.097
299.83	2.075
300.04	1.900
300.25	1.885
300.46	1.992
300.67	1.939
300.88	1.828
301.10	1.831
301.31	2.007
301.52	1.847
301.73	1.733
301.94	1.733
302.15	1.762
302.36	1.680
302.57	1.570
302.78	1.588
302.99	1.658
303.20	1.676
303.41	1.534
303.63	1.501
303.84	1.516
304.05	1.510
304.26	1.428
304.47	1.437
304.68	1.445
304.89	1.430
305.10	1.370
305.31	1.351
305.52	1.407
305.73	1.399
305.94	1.350
306.15	1.341
306.37	1.370
306.58	1.377
306.79	1.332
307.00	1.355
307.21	1.410
307.42	1.404
307.63	1.352
307.84	1.311
308.05	1.357
308.26	1.356
308.47	1.325
308.68	1.321
308.89	1.322
309.10	1.318
309.31	1.269
309.52	1.258
309.73	1.274
309.95	1.270
310.16	1.237
310.37	1.226
310.58	1.247
310.79	1.244
311.00	1.237
311.21	1.240
311.42	1.243
311.63	1.237
311.84	1.214
312.05	1.211
312.26	1.237
312.47	1.249
312.68	1.218
312.89	1.197
313.10	1.206
313.31	1.175
313.52	1.174
313.73	1.175
313.94	1.178
314.15	1.158
314.36	1.133
314.57	1.124
314.78	1.110
314.99	1.103
315.21	1.091
315.42	1.094
315.63	1.107
315.84	1.082
316.05	1.068
316.26	1.076
316.47	1.097
316.68	1.092
316.89	1.070
317.10	1.092
317.31	1.102
317.52	1.101
317.73	1.080
317.94	1.079
318.15	1.124
318.36	1.123
318.57	1.101
318.78	1.089
318.99	1.128
319.20	1.127
319.41	1.089
319.62	1.090
319.83	1.105
320.04	1.099
320.25	1.084
320.46	1.053
320.67	1.058
320.88	1.054
321.09	1.037
321.30	1.021
321.51	1.036
321.72	1.034
321.93	1.014
322.14	1.006
322.35	1.035
322.56	1.036
322.77	1.019
322.98	1.029
323.19	1.039
323.40	1.045
323.61	1.020
323.82	1.015
324.03	1.021
324.24	1.019
324.45	1.005
324.66	0.985
324.87	0.983
325.08	0.982
325.29	0.961
325.50	0.953
325.71	0.959
325.92	0.967
326.13	0.952
326.34	0.953
326.55	0.963
326.76	0.961
326.97	0.950
327.18	0.944
327.39	0.971
327.60	0.972
327.80	0.971
328.01	0.970
328.22	0.971
328.43	0.974
328.64	0.960
328.85	0.964
329.06	0.967
329.27	0.965
329.48	0.960
329.69	0.942
329.90	0.953
330.11	0.946
330.32	0.937
330.53	0.931
330.74	0.931
330.95	0.931
331.16	0.915
331.37	0.921
331.58	0.923
331.79	0.921
332.00	0.910
332.21	0.902
332.42	0.907
332.63	0.899
332.83	0.893
333.04	0.895
333.25	0.908
333.46	0.906
333.67	0.892
333.88	0.895
334.09	0.906
334.30	0.903
334.51	0.894
334.72	0.889
334.93	0.892
335.14	0.890
335.35	0.882
335.56	0.878
335.77	0.886
335.98	0.884
336.18	0.877
336.39	0.869
336.60	0.874
336.81	0.872
337.02	0.872
337.23	0.876
337.44	0.880
337.65	0.882
337.86	0.870
338.07	0.865
338.28	0.871
338.49	0.870
338.70	0.862
338.91	0.868
339.11	0.876
339.32	0.871
339.53	0.860
339.74	0.856
339.95	0.853
340.16	0.852
340.37	0.844
340.58	0.842
340.79	0.845
341.00	0.846
341.21	0.835
341.41	0.835
341.62	0.837
341.83	0.839
342.04	0.834
342.25	0.844
342.46	0.850
342.67	0.848
342.88	0.841
343.09	0.840
343.30	0.848
343.50	0.850
343.71	0.840
343.92	0.839
344.13	0.844
344.34	0.842
344.55	0.825
344.76	0.824
344.97	0.828
345.18	0.827
345.38	0.824
345.59	0.818
345.80	0.818
346.01	0.816
346.22	0.811
346.43	0.805
346.64	0.814
346.85	0.813
347.06	0.806
347.26	0.807
347.47	0.811
347.68	0.806
347.89	0.802
348.10	0.797
348.31	0.805
348.52	0.804
348.73	0.801
348.93	0.798
349.14	0.801
349.35	0.800
349.56	0.794
349.77	0.790
349.98	0.797
350.19	0.794
350.39	0.789
350.60	0.784
350.81	0.801
351.02	0.800
351.23	0.795
351.44	0.797
351.65	0.800
351.86	0.797
352.06	0.795
352.27	0.795
352.48	0.797
352.69	0.796
352.90	0.789
353.11	0.775
353.31	0.783
353.52	0.778
353.73	0.770
353.94	0.771
354.15	0.777
354.36	0.776
354.57	0.767
354.77	0.770
354.98	0.770
355.19	0.769
355.40	0.769
355.61	0.775
355.82	0.780
356.02	0.780
356.23	0.774
356.44	0.776
356.65	0.781
356.86	0.781
357.07	0.774
357.27	0.778
357.48	0.781
357.69	0.777
357.90	0.761
358.11	0.758
358.32	0.763
358.52	0.765
358.73	0.754
358.94	0.757
359.15	0.762
359.36	0.763
359.56	0.758
359.77	0.755
359.98	0.762
360.19	0.762
360.40	0.757
360.61	0.757
360.81	0.757
361.02	0.757
361.23	0.747
361.44	0.745
361.65	0.747
361.85	0.746
362.06	0.743
362.27	0.745
362.48	0.746
362.69	0.749
362.89	0.742
363.10	0.744
363.31	0.749
363.52	0.753
363.73	0.749
363.93	0.749
364.14	0.750
364.35	0.753
364.56	0.742
364.77	0.743
364.97	0.745
365.18	0.747
365.39	0.740
365.60	0.738
365.81	0.738
366.01	0.737
366.22	0.734
366.43	0.734
366.64	0.736
366.84	0.742
367.05	0.738
367.26	0.737
367.47	0.740
367.68	0.740
367.88	0.737
368.09	0.735
368.30	0.738
368.51	0.737
368.71	0.736
368.92	0.740
369.13	0.738
369.34	0.737
369.55	0.736
369.75	0.735
369.96	0.743
370.17	0.742
370.38	0.738
370.58	0.738
370.79	0.745
371.00	0.743
371.21	0.733
371.41	0.739
371.62	0.743
371.83	0.739
372.04	0.737
372.24	0.730
372.45	0.732
372.66	0.732
372.87	0.728
373.07	0.724
373.28	0.725
373.49	0.728
373.70	0.718
373.90	0.717
374.11	0.727
374.32	0.726
374.53	0.725
374.73	0.725
374.94	0.728
375.15	0.728
375.36	0.725
375.56	0.734
375.77	0.734
375.98	0.736
376.19	0.732
376.39	0.726
376.60	0.729
376.81	0.729
377.02	0.726
377.22	0.724
377.43	0.724
377.64	0.724
377.84	0.714
378.05	0.720
378.26	0.726
378.47	0.726
378.67	0.722
378.88	0.719
379.09	0.721
379.30	0.721
379.50	0.719
379.71	0.721
379.92	0.724
380.12	0.724
380.33	0.715
380.54	0.710
380.75	0.717
380.95	0.717
381.16	0.716
381.37	0.715
381.57	0.718
381.78	0.719
381.99	0.718
382.20	0.718
382.40	0.721
382.61	0.721
382.82	0.718
383.02	0.711
383.23	0.714
383.44	0.714
383.64	0.711
383.85	0.713
384.06	0.716
384.27	0.713
384.47	0.711
384.68	0.712
384.89	0.717
385.09	0.717
385.30	0.716
385.51	0.715
385.71	0.718
385.92	0.719
386.13	0.716
386.33	0.718
386.54	0.719
386.75	0.717
386.95	0.713
387.16	0.708
387.37	0.711
387.58	0.711
387.78	0.708
387.99	0.706
388.20	0.709
388.40	0.706
388.61	0.702
388.82	0.705
389.02	0.708
389.23	0.708
389.44	0.705
389.64	0.706
389.85	0.717
390.06	0.716
390.26	0.717
390.47	0.715
390.68	0.718
390.88	0.716
391.09	0.711
391.30	0.710
391.50	0.709
391.71	0.710
391.92	0.706
392.12	0.698
392.33	0.699
392.53	0.699
392.74	0.698
392.95	0.698
393.15	0.701
393.36	0.703
393.57	0.700
393.77	0.704
393.98	0.706
394.19	0.706
394.39	0.704
394.60	0.705
394.81	0.707
395.01	0.705
395.22	0.703
395.43	0.703
395.63	0.709
395.84	0.710
396.04	0.705
396.25	0.707
396.46	0.709
396.66	0.707
396.87	0.705
397.08	0.701
397.28	0.704
397.49	0.705
397.69	0.701
397.90	0.695
398.11	0.697
398.31	0.697
398.52	0.693
398.73	0.694
398.93	0.693
399.14	0.692
399.34	0.691
399.55	0.691
399.76	0.692
399.96	0.693
400.17	0.691
400.37	0.689
400.58	0.696
400.79	0.699
400.99	0.696
401.20	0.701
401.41	0.704
401.61	0.705
401.82	0.711
402.02	0.710
402.23	0.711
402.44	0.711
402.64	0.711
402.85	0.705
403.05	0.704
403.26	0.702
403.47	0.697
403.67	0.696
403.88	0.696
404.08	0.690
404.29	0.688
404.50	0.687
404.70	0.687
404.91	0.687
405.11	0.683
405.32	0.683
405.52	0.684
405.73	0.683
405.94	0.682
406.14	0.684
406.35	0.687
406.55	0.687
406.76	0.684
406.97	0.685
407.17	0.688
407.38	0.687
407.58	0.686
407.79	0.689
407.99	0.691
408.20	0.691
408.41	0.687
408.61	0.684
408.82	0.686
409.02	0.686
409.23	0.683
409.43	0.682
409.64	0.683
409.84	0.682
410.05	0.678
410.26	0.676
410.46	0.676
410.67	0.676
410.87	0.677
411.08	0.678
411.28	0.680
411.49	0.682
411.69	0.679
411.90	0.681
412.11	0.683
412.31	0.684
412.52	0.682
412.72	0.683
412.93	0.684
413.13	0.683
413.34	0.680
413.54	0.681
413.75	0.683
413.95	0.682
414.16	0.679
414.37	0.682
414.57	0.682
414.78	0.685
414.98	0.682
415.19	0.684
415.39	0.682
415.60	0.684
415.80	0.682
416.01	0.680
416.21	0.682
416.42	0.682
416.62	0.677
416.83	0.677
417.03	0.676
417.24	0.676
417.44	0.674
417.65	0.673
417.86	0.674
418.06	0.672
418.27	0.670
418.47	0.672
418.68	0.673
418.88	0.674
419.09	0.672
419.29	0.673
419.50	0.674
419.70	0.673
419.91	0.672
420.11	0.670
420.32	0.673
420.52	0.672
420.73	0.671
420.93	0.672
421.14	0.673
421.34	0.672
421.55	0.668
421.75	0.668
421.96	0.670
422.16	0.670
422.37	0.669
422.57	0.666
422.78	0.668
422.98	0.665
423.19	0.663
423.39	0.662
423.60	0.665
423.80	0.666
424.01	0.664
424.21	0.666
424.42	0.668
424.62	0.667
424.83	0.666
425.03	0.666
425.23	0.668
425.44	0.668
425.64	0.668
425.85	0.668
426.05	0.669
426.26	0.670
426.46	0.666
426.67	0.666
426.87	0.671
427.08	0.672
427.28	0.670
427.49	0.671
427.69	0.672
427.90	0.670
428.10	0.667
428.31	0.667
428.51	0.669
428.71	0.669
428.92	0.670
429.12	0.667
429.33	0.667
429.53	0.671
429.74	0.675
429.94	0.674
430.15	0.675
430.35	0.675
430.56	0.671
430.76	0.671
430.96	0.671
431.17	0.668
431.37	0.665
431.58	0.664
431.78	0.661
431.99	0.654
432.19	0.657
432.40	0.658
432.60	0.659
432.80	0.662
433.01	0.659
433.21	0.660
433.42	0.663
433.62	0.663
433.83	0.662
434.03	0.665
434.23	0.668
434.44	0.666
434.64	0.664
434.85	0.669
435.05	0.671
435.26	0.672
435.46	0.670
435.66	0.669
435.87	0.669
436.07	0.669
436.28	0.665
436.48	0.662
436.69	0.662
436.89	0.662
437.09	0.656
437.30	0.655
437.50	0.655
437.71	0.667
437.91	0.666
438.11	0.668
438.32	0.673
438.52	0.673
438.73	0.672
438.93	0.670
439.13	0.670
439.34	0.674
439.54	0.672
439.75	0.671
439.95	0.661
440.15	0.665
440.36	0.664
440.56	0.661
440.77	0.662
440.97	0.662
441.17	0.661
441.38	0.662
441.58	0.660
441.79	0.660
441.99	0.658
442.19	0.658
442.40	0.656
442.60	0.656
442.81	0.653
443.01	0.653
443.21	0.654
443.42	0.654
443.62	0.652
443.82	0.652
444.03	0.653
444.23	0.653
444.44	0.653
444.64	0.652
444.84	0.653
445.05	0.654
445.25	0.651
445.45	0.652
445.66	0.655
445.86	0.654
446.06	0.655
446.27	0.655
446.47	0.658
446.68	0.657
446.88	0.655
447.08	0.655
447.29	0.657
447.49	0.657
447.69	0.656
447.90	0.655
448.10	0.659
448.30	0.656
448.51	0.657
448.71	0.655
448.91	0.658
449.12	0.656
449.32	0.658
449.52	0.656
449.73	0.661
449.93	0.659
450.14	0.659
450.34	0.658
450.54	0.661
450.75	0.659
450.95	0.658
451.15	0.657
451.36	0.660
451.56	0.657
451.76	0.657
451.97	0.653
452.17	0.655
452.37	0.653
452.58	0.650
452.78	0.649
452.98	0.652
453.19	0.651
453.39	0.652
453.59	0.651
453.79	0.652
454.00	0.652
454.20	0.651
454.40	0.652
454.61	0.654
454.81	0.655
455.01	0.653
455.22	0.654
455.42	0.656
455.62	0.654
455.83	0.653
456.03	0.656
456.23	0.658
456.44	0.659
456.64	0.657
456.84	0.657
457.04	0.658
457.25	0.657
457.45	0.654
457.65	0.652
457.86	0.654
458.06	0.653
458.26	0.648
458.47	0.648
458.67	0.649
458.87	0.649
459.07	0.647
459.28	0.650
459.48	0.652
459.68	0.653
459.89	0.652
