SpectraSuite Data File
++++++++++++++++++++++++++++++++++++
Date: Fri Jun 19 13:13:27 CEST 2015
User: introlabs
Dark Spectrum Present: Yes
Reference Spectrum Present: Yes
Number of Sampled Component Spectra: 1
Spectrometers: USB4H08886
Integration Time (usec): 745692 (USB4H08886)
Spectra Averaged: 5 (USB4H08886)
Boxcar Smoothing: 5 (USB4H08886)
Correct for Electrical Dark: Yes (USB4H08886)
Strobe/Lamp Enabled: No (USB4H08886)
Correct for Detector Non-linearity: Yes (USB4H08886)
Correct for Stray Light: Yes (USB4H08886)
Number of Pixels in Processed Spectrum: 3648
>>>>>Begin Processed Spectral Data<<<<<
178.14	-0.000
178.36	-0.000
178.57	-0.000
178.79	-0.000
179.01	-0.000
179.22	-0.000
179.44	-0.000
179.65	-0.000
179.87	-0.000
180.08	-0.000
180.30	-0.000
180.52	-0.000
180.73	-0.000
180.95	-0.000
181.16	-0.000
181.38	-0.000
181.59	-0.000
181.81	-0.000
182.03	-0.000
182.24	-0.000
182.46	-0.000
182.67	-0.000
182.89	-0.000
183.10	-0.000
183.32	-0.000
183.54	-0.000
183.75	-0.000
183.97	-0.000
184.18	-0.000
184.40	-0.000
184.61	-0.000
184.83	-0.000
185.04	-0.000
185.26	-0.000
185.48	-0.000
185.69	-0.000
185.91	-0.000
186.12	-0.000
186.34	-0.000
186.55	-0.000
186.77	-0.000
186.98	-0.000
187.20	-0.000
187.42	-0.000
187.63	-0.000
187.85	-0.000
188.06	-0.000
188.28	-0.000
188.49	-0.000
188.71	-0.000
188.92	-0.000
189.14	-0.000
189.36	-0.000
189.57	-0.000
189.79	-0.000
190.00	-0.000
190.22	-0.000
190.43	-0.000
190.65	-0.000
190.86	-0.000
191.08	-0.000
191.29	-0.000
191.51	-0.000
191.72	-0.000
191.94	-0.000
192.16	-0.000
192.37	-0.000
192.59	-0.000
192.80	-0.000
193.02	-0.000
193.23	-0.000
193.45	-0.000
193.66	-0.000
193.88	-0.000
194.09	-0.000
194.31	-0.000
194.52	-0.000
194.74	-0.000
194.95	-0.000
195.17	-0.000
195.38	-0.000
195.60	-0.000
195.81	-0.000
196.03	-0.000
196.25	-0.000
196.46	-0.000
196.68	-0.000
196.89	-0.000
197.11	-0.000
197.32	-0.000
197.54	-0.000
197.75	-0.000
197.97	-0.000
198.18	-0.000
198.40	-0.000
198.61	-0.000
198.83	-0.000
199.04	-0.000
199.26	-0.000
199.47	-0.000
199.69	-0.000
199.90	-0.000
200.12	-0.000
200.33	-0.000
200.55	-0.000
200.76	-0.000
200.98	-0.000
201.19	-0.000
201.41	-0.000
201.62	-0.000
201.84	-0.000
202.05	-0.000
202.27	-0.000
202.48	-0.000
202.70	-0.000
202.91	-0.000
203.13	-0.000
203.34	-0.000
203.56	-0.000
203.77	-0.000
203.99	-0.000
204.20	-0.000
204.42	-0.000
204.63	-0.000
204.85	-0.000
205.06	-0.000
205.28	-0.000
205.49	-0.000
205.71	-0.000
205.92	-0.000
206.14	-0.000
206.35	-0.000
206.56	-0.000
206.78	-0.000
206.99	-0.000
207.21	-0.000
207.42	-0.000
207.64	-0.000
207.85	-0.000
208.07	-0.000
208.28	-0.000
208.50	-0.000
208.71	-0.000
208.93	-0.000
209.14	-0.000
209.36	-0.000
209.57	-0.000
209.79	-0.000
210.00	-0.000
210.22	-0.000
210.43	-0.000
210.64	-0.000
210.86	-0.000
211.07	-0.000
211.29	-0.000
211.50	-0.000
211.72	-0.000
211.93	-0.000
212.15	-0.000
212.36	-0.000
212.58	-0.000
212.79	-0.000
213.01	-0.000
213.22	-0.000
213.43	-0.000
213.65	-0.000
213.86	-0.000
214.08	-0.000
214.29	-0.000
214.51	-0.000
214.72	-0.000
214.94	-0.000
215.15	-0.000
215.36	-0.000
215.58	-0.000
215.79	-0.000
216.01	-0.000
216.22	-0.000
216.44	-0.000
216.65	-0.000
216.87	-0.000
217.08	-0.000
217.29	-0.000
217.51	-0.000
217.72	-0.000
217.94	-0.000
218.15	-0.000
218.37	-0.000
218.58	-0.000
218.80	-0.000
219.01	-0.000
219.22	-0.000
219.44	-0.000
219.65	-0.000
219.87	-0.000
220.08	-0.000
220.30	-0.000
220.51	-0.000
220.72	-0.000
220.94	-0.000
221.15	-0.000
221.37	-0.000
221.58	-0.000
221.79	-0.000
222.01	-0.000
222.22	-0.000
222.44	-0.000
222.65	-0.000
222.87	-0.000
223.08	-0.000
223.29	-0.000
223.51	-0.000
223.72	-0.000
223.94	-0.000
224.15	-0.000
224.36	-0.000
224.58	-0.000
224.79	-0.000
225.01	-0.000
225.22	-0.000
225.44	-0.000
225.65	-0.000
225.86	-0.000
226.08	-0.000
226.29	-0.000
226.51	-0.000
226.72	-0.000
226.93	-0.000
227.15	-0.000
227.36	-0.000
227.58	-0.000
227.79	-0.000
228.00	-0.000
228.22	-0.000
228.43	-0.000
228.65	-0.000
228.86	-0.000
229.07	-0.000
229.29	-0.000
229.50	-0.000
229.72	-0.000
229.93	-0.000
230.14	-0.000
230.36	-0.000
230.57	-0.000
230.78	-0.000
231.00	-0.000
231.21	-0.000
231.43	-0.000
231.64	-0.000
231.85	-0.000
232.07	-0.000
232.28	-0.000
232.50	-0.000
232.71	-0.000
232.92	-0.000
233.14	-0.000
233.35	-0.000
233.56	-0.000
233.78	-0.000
233.99	-0.000
234.21	-0.000
234.42	-0.000
234.63	-0.000
234.85	-0.000
235.06	-0.000
235.27	-0.000
235.49	-0.000
235.70	-0.000
235.91	-0.000
236.13	-0.000
236.34	-0.000
236.56	-0.000
236.77	-0.000
236.98	-0.000
237.20	-0.000
237.41	-0.000
237.62	-0.000
237.84	-0.000
238.05	-0.000
238.26	-0.000
238.48	-0.000
238.69	-0.000
238.91	-0.000
239.12	-0.000
239.33	-0.000
239.55	-0.000
239.76	-0.000
239.97	-0.000
240.19	-0.000
240.40	-0.000
240.61	-0.000
240.83	-0.000
241.04	-0.000
241.25	-0.000
241.47	-0.000
241.68	-0.000
241.89	-0.000
242.11	-0.000
242.32	-0.000
242.53	-0.000
242.75	-0.000
242.96	-0.000
243.17	-0.000
243.39	-0.000
243.60	-0.000
243.81	-0.000
244.03	-0.000
244.24	-0.000
244.45	-0.000
244.67	-0.000
244.88	-0.000
245.09	-0.000
245.31	-0.000
245.52	-0.000
245.73	-0.000
245.95	-0.000
246.16	-0.000
246.37	-0.000
246.59	-0.000
246.80	-0.000
247.01	-0.000
247.23	-0.000
247.44	-0.000
247.65	-0.000
247.87	-0.000
248.08	-0.000
248.29	-0.000
248.51	-0.000
248.72	-0.000
248.93	-0.000
249.15	-0.000
249.36	-0.000
249.57	-0.000
249.78	-0.000
250.00	-0.000
250.21	-0.000
250.42	-0.000
250.64	-0.000
250.85	-0.000
251.06	-0.000
251.28	-0.000
251.49	-0.000
251.70	-0.000
251.92	-0.000
252.13	-0.000
252.34	-0.000
252.55	-0.000
252.77	-0.000
252.98	-0.000
253.19	-0.000
253.41	-0.000
253.62	-0.000
253.83	-0.000
254.05	-0.000
254.26	-0.000
254.47	-0.000
254.68	-0.000
254.90	-0.000
255.11	-0.000
255.32	-0.000
255.54	-0.000
255.75	-0.000
255.96	-0.000
256.17	-0.000
256.39	-0.000
256.60	-0.000
256.81	-0.000
257.03	-0.000
257.24	-0.000
257.45	-0.000
257.66	-0.000
257.88	-0.000
258.09	-0.000
258.30	-0.000
258.51	-0.000
258.73	-0.000
258.94	-0.000
259.15	-0.000
259.37	-0.000
259.58	-0.000
259.79	-0.000
260.00	-0.000
260.22	-0.000
260.43	-0.000
260.64	-0.000
260.85	-0.000
261.07	-0.000
261.28	-0.000
261.49	-0.000
261.71	-0.000
261.92	-0.000
262.13	-0.000
262.34	-0.000
262.56	-0.000
262.77	-0.000
262.98	-0.000
263.19	-0.000
263.41	-0.000
263.62	-0.000
263.83	-0.000
264.04	-0.000
264.26	-0.000
264.47	-0.000
264.68	-0.000
264.89	-0.000
265.11	-0.000
265.32	-0.000
265.53	-0.000
265.74	-0.000
265.96	-0.000
266.17	-0.000
266.38	-0.000
266.59	-0.000
266.81	-0.000
267.02	-0.000
267.23	-0.000
267.44	-0.000
267.65	-0.000
267.87	-0.000
268.08	-0.000
268.29	-0.000
268.50	-0.000
268.72	-0.000
268.93	-0.000
269.14	-0.000
269.35	-0.000
269.57	-0.000
269.78	-0.000
269.99	-0.000
270.20	-0.000
270.41	-0.000
270.63	-0.000
270.84	-0.000
271.05	-0.000
271.26	-0.000
271.48	-0.000
271.69	-0.000
271.90	-0.000
272.11	-0.000
272.32	-0.000
272.54	-0.000
272.75	-0.000
272.96	-0.000
273.17	-0.000
273.39	-0.000
273.60	-0.000
273.81	-0.000
274.02	-0.000
274.23	-0.000
274.45	-0.000
274.66	-0.000
274.87	-0.000
275.08	-0.000
275.29	-0.000
275.51	-0.000
275.72	-0.000
275.93	-0.000
276.14	-0.000
276.35	-0.000
276.57	-0.000
276.78	-0.000
276.99	-0.000
277.20	-0.000
277.41	-0.000
277.63	-0.000
277.84	-0.000
278.05	-0.000
278.26	-0.000
278.47	-0.000
278.69	-0.000
278.90	-0.000
279.11	-0.000
279.32	-0.000
279.53	-0.000
279.74	-0.000
279.96	-0.000
280.17	-0.000
280.38	-0.000
280.59	-0.000
280.80	-0.000
281.02	-0.000
281.23	-0.000
281.44	-0.000
281.65	-0.000
281.86	-0.000
282.07	-0.000
282.29	-0.000
282.50	-0.000
282.71	-0.000
282.92	-0.000
283.13	-0.000
283.35	-0.000
283.56	-0.000
283.77	-0.000
283.98	-0.000
284.19	-0.000
284.40	-0.000
284.62	-0.000
284.83	-0.000
285.04	-0.000
285.25	-0.000
285.46	-0.000
285.67	-0.000
285.88	-0.000
286.10	-0.000
286.31	-0.000
286.52	-0.000
286.73	-0.000
286.94	-0.000
287.15	-0.000
287.37	-0.000
287.58	-0.000
287.79	-0.000
288.00	-0.000
288.21	-0.000
288.42	-0.000
288.63	-0.000
288.85	-0.000
289.06	-0.000
289.27	-0.000
289.48	-0.000
289.69	-0.000
289.90	-0.000
290.11	-0.000
290.33	-0.000
290.54	-0.000
290.75	-0.000
290.96	-0.000
291.17	-0.000
291.38	-0.000
291.59	-0.000
291.81	-0.000
292.02	-0.000
292.23	-0.000
292.44	-0.000
292.65	-0.000
292.86	-0.000
293.07	-0.000
293.28	-0.000
293.50	-0.000
293.71	-0.000
293.92	-0.000
294.13	-0.000
294.34	-0.000
294.55	-0.000
294.76	-0.000
294.97	-0.000
295.19	-0.000
295.40	-0.000
295.61	-0.000
295.82	-0.000
296.03	-0.000
296.24	-0.000
296.45	-0.000
296.66	-0.000
296.87	-0.000
297.09	-0.000
297.30	-0.000
297.51	2.512
297.72	2.275
297.93	3.006
298.14	2.537
298.35	2.298
298.56	2.188
298.77	2.920
298.99	2.592
299.20	2.369
299.41	2.302
299.62	2.147
299.83	2.096
300.04	1.918
300.25	1.910
300.46	2.034
300.67	1.951
300.88	1.835
301.10	1.830
301.31	1.998
301.52	1.857
301.73	1.736
301.94	1.739
302.15	1.765
302.36	1.683
302.57	1.578
302.78	1.591
302.99	1.655
303.20	1.681
303.41	1.539
303.63	1.509
303.84	1.515
304.05	1.508
304.26	1.425
304.47	1.433
304.68	1.441
304.89	1.423
305.10	1.366
305.31	1.349
305.52	1.404
305.73	1.396
305.94	1.343
306.15	1.338
306.37	1.367
306.58	1.376
306.79	1.334
307.00	1.361
307.21	1.413
307.42	1.400
307.63	1.356
307.84	1.312
308.05	1.360
308.26	1.361
308.47	1.331
308.68	1.324
308.89	1.323
309.10	1.320
309.31	1.270
309.52	1.259
309.73	1.276
309.95	1.268
310.16	1.236
310.37	1.219
310.58	1.239
310.79	1.234
311.00	1.228
311.21	1.233
311.42	1.238
311.63	1.234
311.84	1.212
312.05	1.210
312.26	1.237
312.47	1.250
312.68	1.223
312.89	1.204
313.10	1.213
313.31	1.181
313.52	1.180
313.73	1.181
313.94	1.182
314.15	1.161
314.36	1.135
314.57	1.125
314.78	1.113
314.99	1.108
315.21	1.094
315.42	1.098
315.63	1.113
315.84	1.088
316.05	1.070
316.26	1.079
316.47	1.099
316.68	1.098
316.89	1.076
317.10	1.097
317.31	1.103
317.52	1.104
317.73	1.082
317.94	1.080
318.15	1.138
318.36	1.136
318.57	1.114
318.78	1.101
318.99	1.137
319.20	1.135
319.41	1.098
319.62	1.098
319.83	1.115
320.04	1.110
320.25	1.094
320.46	1.049
320.67	1.054
320.88	1.050
321.09	1.035
321.30	1.020
321.51	1.035
321.72	1.032
321.93	1.014
322.14	1.003
322.35	1.031
322.56	1.032
322.77	1.016
322.98	1.029
323.19	1.038
323.40	1.046
323.61	1.022
323.82	1.016
324.03	1.023
324.24	1.022
324.45	1.010
324.66	0.989
324.87	0.987
325.08	0.987
325.29	0.966
325.50	0.957
325.71	0.962
325.92	0.970
326.13	0.957
326.34	0.956
326.55	0.964
326.76	0.962
326.97	0.951
327.18	0.946
327.39	0.974
327.60	0.976
327.80	0.975
328.01	0.973
328.22	0.973
328.43	0.976
328.64	0.964
328.85	0.967
329.06	0.970
329.27	0.970
329.48	0.963
329.69	0.942
329.90	0.952
330.11	0.945
330.32	0.937
330.53	0.930
330.74	0.931
330.95	0.928
331.16	0.913
331.37	0.919
331.58	0.920
331.79	0.919
332.00	0.910
332.21	0.904
332.42	0.909
332.63	0.901
332.83	0.896
333.04	0.897
333.25	0.911
333.46	0.909
333.67	0.895
333.88	0.896
334.09	0.907
334.30	0.904
334.51	0.893
334.72	0.889
334.93	0.893
335.14	0.893
335.35	0.885
335.56	0.879
335.77	0.889
335.98	0.887
336.18	0.881
336.39	0.874
336.60	0.879
336.81	0.877
337.02	0.875
337.23	0.879
337.44	0.882
337.65	0.886
337.86	0.874
338.07	0.870
338.28	0.876
338.49	0.872
338.70	0.865
338.91	0.872
339.11	0.879
339.32	0.875
339.53	0.863
339.74	0.860
339.95	0.857
340.16	0.856
340.37	0.848
340.58	0.846
340.79	0.851
341.00	0.848
341.21	0.836
341.41	0.837
341.62	0.838
341.83	0.840
342.04	0.835
342.25	0.845
342.46	0.850
342.67	0.849
342.88	0.841
343.09	0.841
343.30	0.849
343.50	0.853
343.71	0.842
343.92	0.841
344.13	0.847
344.34	0.846
344.55	0.830
344.76	0.828
344.97	0.833
345.18	0.832
345.38	0.827
345.59	0.821
345.80	0.821
346.01	0.819
346.22	0.815
346.43	0.808
346.64	0.816
346.85	0.816
347.06	0.809
347.26	0.808
347.47	0.812
347.68	0.808
347.89	0.805
348.10	0.801
348.31	0.808
348.52	0.806
348.73	0.804
348.93	0.801
349.14	0.803
349.35	0.802
349.56	0.796
349.77	0.791
349.98	0.798
350.19	0.795
350.39	0.789
350.60	0.786
350.81	0.801
351.02	0.800
351.23	0.794
351.44	0.797
351.65	0.801
351.86	0.799
352.06	0.797
352.27	0.797
352.48	0.798
352.69	0.798
352.90	0.792
353.11	0.779
353.31	0.786
353.52	0.782
353.73	0.773
353.94	0.774
354.15	0.780
354.36	0.781
354.57	0.772
354.77	0.774
354.98	0.773
355.19	0.772
355.40	0.771
355.61	0.778
355.82	0.783
356.02	0.782
356.23	0.774
356.44	0.776
356.65	0.780
356.86	0.781
357.07	0.775
357.27	0.778
357.48	0.781
357.69	0.777
357.90	0.761
358.11	0.758
358.32	0.762
358.52	0.765
358.73	0.755
358.94	0.757
359.15	0.761
359.36	0.762
359.56	0.756
359.77	0.753
359.98	0.761
360.19	0.760
360.40	0.756
360.61	0.758
360.81	0.757
361.02	0.757
361.23	0.749
361.44	0.747
361.65	0.748
361.85	0.747
362.06	0.745
362.27	0.746
362.48	0.747
362.69	0.749
362.89	0.743
363.10	0.744
363.31	0.750
363.52	0.752
363.73	0.747
363.93	0.748
364.14	0.750
364.35	0.752
364.56	0.742
364.77	0.744
364.97	0.747
365.18	0.748
365.39	0.742
365.60	0.738
365.81	0.740
366.01	0.741
366.22	0.737
366.43	0.736
366.64	0.739
366.84	0.744
367.05	0.740
367.26	0.739
367.47	0.741
367.68	0.742
367.88	0.739
368.09	0.737
368.30	0.739
368.51	0.739
368.71	0.738
368.92	0.742
369.13	0.740
369.34	0.739
369.55	0.738
369.75	0.738
369.96	0.745
370.17	0.745
370.38	0.741
370.58	0.741
370.79	0.747
371.00	0.745
371.21	0.736
371.41	0.741
371.62	0.746
371.83	0.742
372.04	0.739
372.24	0.732
372.45	0.733
372.66	0.733
372.87	0.730
373.07	0.726
373.28	0.727
373.49	0.731
373.70	0.721
373.90	0.720
374.11	0.729
374.32	0.728
374.53	0.727
374.73	0.729
374.94	0.731
375.15	0.731
375.36	0.728
375.56	0.737
375.77	0.738
375.98	0.737
376.19	0.734
376.39	0.727
376.60	0.732
376.81	0.733
377.02	0.729
377.22	0.728
377.43	0.728
377.64	0.728
377.84	0.719
378.05	0.724
378.26	0.730
378.47	0.729
378.67	0.726
378.88	0.722
379.09	0.723
379.30	0.723
379.50	0.720
379.71	0.724
379.92	0.726
380.12	0.724
380.33	0.715
380.54	0.712
380.75	0.719
380.95	0.719
381.16	0.716
381.37	0.716
381.57	0.718
381.78	0.718
381.99	0.716
382.20	0.716
382.40	0.720
382.61	0.720
382.82	0.716
383.02	0.710
383.23	0.713
383.44	0.713
383.64	0.711
383.85	0.714
384.06	0.717
384.27	0.714
384.47	0.712
384.68	0.713
384.89	0.718
385.09	0.717
385.30	0.716
385.51	0.715
385.71	0.719
385.92	0.720
386.13	0.718
386.33	0.719
386.54	0.721
386.75	0.719
386.95	0.715
387.16	0.710
387.37	0.713
387.58	0.713
387.78	0.711
387.99	0.708
388.20	0.710
388.40	0.707
388.61	0.703
388.82	0.706
389.02	0.709
389.23	0.709
389.44	0.706
389.64	0.706
389.85	0.718
390.06	0.717
390.26	0.716
390.47	0.716
390.68	0.718
390.88	0.716
391.09	0.712
391.30	0.710
391.50	0.711
391.71	0.711
391.92	0.708
392.12	0.700
392.33	0.701
392.53	0.701
392.74	0.701
392.95	0.700
393.15	0.703
393.36	0.705
393.57	0.703
393.77	0.705
393.98	0.707
394.19	0.707
394.39	0.706
394.60	0.707
394.81	0.709
395.01	0.706
395.22	0.705
395.43	0.705
395.63	0.709
395.84	0.710
396.04	0.706
396.25	0.708
396.46	0.710
396.66	0.708
396.87	0.705
397.08	0.702
397.28	0.704
397.49	0.705
397.69	0.701
397.90	0.696
398.11	0.698
398.31	0.699
398.52	0.695
398.73	0.696
398.93	0.696
399.14	0.695
399.34	0.693
399.55	0.695
399.76	0.695
399.96	0.695
400.17	0.694
400.37	0.692
400.58	0.698
400.79	0.700
400.99	0.698
401.20	0.704
401.41	0.706
401.61	0.708
401.82	0.712
402.02	0.711
402.23	0.713
402.44	0.712
402.64	0.711
402.85	0.706
403.05	0.706
403.26	0.704
403.47	0.697
403.67	0.696
403.88	0.697
404.08	0.691
404.29	0.690
404.50	0.689
404.70	0.689
404.91	0.688
405.11	0.684
405.32	0.684
405.52	0.685
405.73	0.684
405.94	0.682
406.14	0.685
406.35	0.687
406.55	0.686
406.76	0.684
406.97	0.685
407.17	0.688
407.38	0.688
407.58	0.686
407.79	0.689
407.99	0.691
408.20	0.692
408.41	0.687
408.61	0.685
408.82	0.687
409.02	0.686
409.23	0.684
409.43	0.683
409.64	0.685
409.84	0.684
410.05	0.680
410.26	0.679
410.46	0.679
410.67	0.678
410.87	0.679
411.08	0.680
411.28	0.682
411.49	0.684
411.69	0.681
411.90	0.682
412.11	0.684
412.31	0.685
412.52	0.684
412.72	0.685
412.93	0.685
413.13	0.684
413.34	0.681
413.54	0.682
413.75	0.683
413.95	0.683
414.16	0.680
414.37	0.682
414.57	0.683
414.78	0.686
414.98	0.684
415.19	0.685
415.39	0.684
415.60	0.686
415.80	0.684
416.01	0.683
416.21	0.684
416.42	0.684
416.62	0.678
416.83	0.678
417.03	0.677
417.24	0.677
417.44	0.674
417.65	0.673
417.86	0.674
418.06	0.672
418.27	0.670
418.47	0.672
418.68	0.673
418.88	0.674
419.09	0.673
419.29	0.674
419.50	0.675
419.70	0.675
419.91	0.673
420.11	0.671
420.32	0.674
420.52	0.674
420.73	0.672
420.93	0.673
421.14	0.675
421.34	0.673
421.55	0.670
421.75	0.670
421.96	0.672
422.16	0.672
422.37	0.670
422.57	0.668
422.78	0.669
422.98	0.666
423.19	0.664
423.39	0.662
423.60	0.666
423.80	0.668
424.01	0.665
424.21	0.668
424.42	0.669
424.62	0.669
424.83	0.668
425.03	0.668
425.23	0.671
425.44	0.670
425.64	0.671
425.85	0.670
426.05	0.671
426.26	0.672
426.46	0.668
426.67	0.667
426.87	0.672
427.08	0.673
427.28	0.670
427.49	0.671
427.69	0.672
427.90	0.671
428.10	0.668
428.31	0.668
428.51	0.669
428.71	0.668
428.92	0.669
429.12	0.666
429.33	0.667
429.53	0.671
429.74	0.675
429.94	0.676
430.15	0.675
430.35	0.676
430.56	0.673
430.76	0.673
430.96	0.674
431.17	0.671
431.37	0.668
431.58	0.666
431.78	0.663
431.99	0.657
432.19	0.659
432.40	0.661
432.60	0.662
432.80	0.664
433.01	0.662
433.21	0.663
433.42	0.666
433.62	0.666
433.83	0.666
434.03	0.669
434.23	0.672
434.44	0.670
434.64	0.668
434.85	0.673
435.05	0.674
435.26	0.674
435.46	0.672
435.66	0.671
435.87	0.671
436.07	0.672
436.28	0.668
436.48	0.665
436.69	0.665
436.89	0.665
437.09	0.659
437.30	0.658
437.50	0.659
437.71	0.671
437.91	0.670
438.11	0.671
438.32	0.675
438.52	0.675
438.73	0.673
438.93	0.671
439.13	0.671
439.34	0.675
439.54	0.672
439.75	0.672
439.95	0.663
440.15	0.667
440.36	0.665
440.56	0.663
440.77	0.664
440.97	0.664
441.17	0.663
441.38	0.664
441.58	0.661
441.79	0.661
441.99	0.659
442.19	0.658
442.40	0.656
442.60	0.656
442.81	0.654
443.01	0.655
443.21	0.656
443.42	0.655
443.62	0.654
443.82	0.654
444.03	0.656
444.23	0.656
444.44	0.656
444.64	0.655
444.84	0.656
445.05	0.656
445.25	0.653
445.45	0.654
445.66	0.657
445.86	0.656
446.06	0.657
446.27	0.656
446.47	0.659
446.68	0.657
446.88	0.656
447.08	0.655
447.29	0.657
447.49	0.657
447.69	0.657
447.90	0.656
448.10	0.659
448.30	0.657
448.51	0.659
448.71	0.656
448.91	0.659
449.12	0.658
449.32	0.659
449.52	0.658
449.73	0.663
449.93	0.662
450.14	0.662
450.34	0.661
450.54	0.664
450.75	0.661
450.95	0.660
451.15	0.660
451.36	0.663
451.56	0.660
451.76	0.658
451.97	0.655
452.17	0.656
452.37	0.654
452.58	0.650
452.78	0.650
452.98	0.653
453.19	0.653
453.39	0.653
453.59	0.652
453.79	0.654
454.00	0.655
454.20	0.654
454.40	0.654
454.61	0.657
454.81	0.658
455.01	0.655
455.22	0.656
455.42	0.657
455.62	0.655
455.83	0.654
456.03	0.657
456.23	0.659
456.44	0.660
456.64	0.659
456.84	0.659
457.04	0.660
457.25	0.660
457.45	0.657
457.65	0.656
457.86	0.657
458.06	0.656
458.26	0.650
458.47	0.649
458.67	0.650
458.87	0.650
459.07	0.648
459.28	0.650
459.48	0.652
459.68	0.652
