SpectraSuite Data File
++++++++++++++++++++++++++++++++++++
Date: Fri Jun 19 12:32:55 CEST 2015
User: introlabs
Dark Spectrum Present: Yes
Reference Spectrum Present: Yes
Number of Sampled Component Spectra: 1
Spectrometers: USB4H08886
Integration Time (usec): 745692 (USB4H08886)
Spectra Averaged: 5 (USB4H08886)
Boxcar Smoothing: 5 (USB4H08886)
Correct for Electrical Dark: Yes (USB4H08886)
Strobe/Lamp Enabled: No (USB4H08886)
Correct for Detector Non-linearity: Yes (USB4H08886)
Correct for Stray Light: Yes (USB4H08886)
Number of Pixels in Processed Spectrum: 3648
>>>>>Begin Processed Spectral Data<<<<<
178.14	-0.000
178.36	-0.000
178.57	-0.000
178.79	-0.000
179.01	-0.000
179.22	-0.000
179.44	-0.000
179.65	-0.000
179.87	-0.000
180.08	-0.000
180.30	-0.000
180.52	-0.000
180.73	-0.000
180.95	-0.000
181.16	-0.000
181.38	-0.000
181.59	-0.000
181.81	-0.000
182.03	-0.000
182.24	-0.000
182.46	-0.000
182.67	-0.000
182.89	-0.000
183.10	-0.000
183.32	-0.000
183.54	-0.000
183.75	-0.000
183.97	-0.000
184.18	-0.000
184.40	-0.000
184.61	-0.000
184.83	-0.000
185.04	-0.000
185.26	-0.000
185.48	-0.000
185.69	-0.000
185.91	-0.000
186.12	-0.000
186.34	-0.000
186.55	-0.000
186.77	-0.000
186.98	-0.000
187.20	-0.000
187.42	-0.000
187.63	-0.000
187.85	-0.000
188.06	-0.000
188.28	-0.000
188.49	-0.000
188.71	-0.000
188.92	-0.000
189.14	-0.000
189.36	-0.000
189.57	-0.000
189.79	-0.000
190.00	-0.000
190.22	-0.000
190.43	-0.000
190.65	-0.000
190.86	-0.000
191.08	-0.000
191.29	-0.000
191.51	-0.000
191.72	-0.000
191.94	-0.000
192.16	-0.000
192.37	-0.000
192.59	-0.000
192.80	-0.000
193.02	-0.000
193.23	-0.000
193.45	-0.000
193.66	-0.000
193.88	-0.000
194.09	-0.000
194.31	-0.000
194.52	-0.000
194.74	-0.000
194.95	-0.000
195.17	-0.000
195.38	-0.000
195.60	-0.000
195.81	-0.000
196.03	-0.000
196.25	-0.000
196.46	-0.000
196.68	-0.000
196.89	-0.000
197.11	-0.000
197.32	-0.000
197.54	-0.000
197.75	-0.000
197.97	-0.000
198.18	-0.000
198.40	-0.000
198.61	-0.000
198.83	-0.000
199.04	-0.000
199.26	-0.000
199.47	-0.000
199.69	-0.000
199.90	-0.000
200.12	-0.000
200.33	-0.000
200.55	-0.000
200.76	-0.000
200.98	-0.000
201.19	-0.000
201.41	-0.000
201.62	-0.000
201.84	-0.000
202.05	-0.000
202.27	-0.000
202.48	-0.000
202.70	-0.000
202.91	-0.000
203.13	-0.000
203.34	-0.000
203.56	-0.000
203.77	-0.000
203.99	-0.000
204.20	-0.000
204.42	-0.000
204.63	-0.000
204.85	-0.000
205.06	-0.000
205.28	-0.000
205.49	-0.000
205.71	-0.000
205.92	-0.000
206.14	-0.000
206.35	-0.000
206.56	-0.000
206.78	-0.000
206.99	-0.000
207.21	-0.000
207.42	-0.000
207.64	-0.000
207.85	-0.000
208.07	-0.000
208.28	-0.000
208.50	-0.000
208.71	-0.000
208.93	-0.000
209.14	-0.000
209.36	-0.000
209.57	-0.000
209.79	-0.000
210.00	-0.000
210.22	-0.000
210.43	-0.000
210.64	-0.000
210.86	-0.000
211.07	-0.000
211.29	-0.000
211.50	-0.000
211.72	-0.000
211.93	-0.000
212.15	-0.000
212.36	-0.000
212.58	-0.000
212.79	-0.000
213.01	-0.000
213.22	-0.000
213.43	-0.000
213.65	-0.000
213.86	-0.000
214.08	-0.000
214.29	-0.000
214.51	-0.000
214.72	-0.000
214.94	-0.000
215.15	-0.000
215.36	-0.000
215.58	-0.000
215.79	-0.000
216.01	-0.000
216.22	-0.000
216.44	-0.000
216.65	-0.000
216.87	-0.000
217.08	-0.000
217.29	-0.000
217.51	-0.000
217.72	-0.000
217.94	-0.000
218.15	-0.000
218.37	-0.000
218.58	-0.000
218.80	-0.000
219.01	-0.000
219.22	-0.000
219.44	-0.000
219.65	-0.000
219.87	-0.000
220.08	-0.000
220.30	-0.000
220.51	-0.000
220.72	-0.000
220.94	-0.000
221.15	-0.000
221.37	-0.000
221.58	-0.000
221.79	-0.000
222.01	-0.000
222.22	-0.000
222.44	-0.000
222.65	-0.000
222.87	-0.000
223.08	-0.000
223.29	-0.000
223.51	-0.000
223.72	-0.000
223.94	-0.000
224.15	-0.000
224.36	-0.000
224.58	-0.000
224.79	-0.000
225.01	-0.000
225.22	-0.000
225.44	-0.000
225.65	-0.000
225.86	-0.000
226.08	-0.000
226.29	-0.000
226.51	-0.000
226.72	-0.000
226.93	-0.000
227.15	-0.000
227.36	-0.000
227.58	-0.000
227.79	-0.000
228.00	-0.000
228.22	-0.000
228.43	-0.000
228.65	-0.000
228.86	-0.000
229.07	-0.000
229.29	-0.000
229.50	-0.000
229.72	-0.000
229.93	-0.000
230.14	-0.000
230.36	-0.000
230.57	-0.000
230.78	-0.000
231.00	-0.000
231.21	-0.000
231.43	-0.000
231.64	-0.000
231.85	-0.000
232.07	-0.000
232.28	-0.000
232.50	-0.000
232.71	-0.000
232.92	-0.000
233.14	-0.000
233.35	-0.000
233.56	-0.000
233.78	-0.000
233.99	-0.000
234.21	-0.000
234.42	-0.000
234.63	-0.000
234.85	-0.000
235.06	-0.000
235.27	-0.000
235.49	-0.000
235.70	-0.000
235.91	-0.000
236.13	-0.000
236.34	-0.000
236.56	-0.000
236.77	-0.000
236.98	-0.000
237.20	-0.000
237.41	-0.000
237.62	-0.000
237.84	-0.000
238.05	-0.000
238.26	-0.000
238.48	-0.000
238.69	-0.000
238.91	-0.000
239.12	-0.000
239.33	-0.000
239.55	-0.000
239.76	-0.000
239.97	-0.000
240.19	-0.000
240.40	-0.000
240.61	-0.000
240.83	-0.000
241.04	-0.000
241.25	-0.000
241.47	-0.000
241.68	-0.000
241.89	-0.000
242.11	-0.000
242.32	-0.000
242.53	-0.000
242.75	-0.000
242.96	-0.000
243.17	-0.000
243.39	-0.000
243.60	-0.000
243.81	-0.000
244.03	-0.000
244.24	-0.000
244.45	-0.000
244.67	-0.000
244.88	-0.000
245.09	-0.000
245.31	-0.000
245.52	-0.000
245.73	-0.000
245.95	-0.000
246.16	-0.000
246.37	-0.000
246.59	-0.000
246.80	-0.000
247.01	-0.000
247.23	-0.000
247.44	-0.000
247.65	-0.000
247.87	-0.000
248.08	-0.000
248.29	-0.000
248.51	-0.000
248.72	-0.000
248.93	-0.000
249.15	-0.000
249.36	-0.000
249.57	-0.000
249.78	-0.000
250.00	-0.000
250.21	-0.000
250.42	-0.000
250.64	-0.000
250.85	-0.000
251.06	-0.000
251.28	-0.000
251.49	-0.000
251.70	-0.000
251.92	-0.000
252.13	-0.000
252.34	-0.000
252.55	-0.000
252.77	-0.000
252.98	-0.000
253.19	-0.000
253.41	-0.000
253.62	-0.000
253.83	-0.000
254.05	-0.000
254.26	-0.000
254.47	-0.000
254.68	-0.000
254.90	-0.000
255.11	-0.000
255.32	-0.000
255.54	-0.000
255.75	-0.000
255.96	-0.000
256.17	-0.000
256.39	-0.000
256.60	-0.000
256.81	-0.000
257.03	-0.000
257.24	-0.000
257.45	-0.000
257.66	-0.000
257.88	-0.000
258.09	-0.000
258.30	-0.000
258.51	-0.000
258.73	-0.000
258.94	-0.000
259.15	-0.000
259.37	-0.000
259.58	-0.000
259.79	-0.000
260.00	-0.000
260.22	-0.000
260.43	-0.000
260.64	-0.000
260.85	-0.000
261.07	-0.000
261.28	-0.000
261.49	-0.000
261.71	-0.000
261.92	-0.000
262.13	-0.000
262.34	-0.000
262.56	-0.000
262.77	-0.000
262.98	-0.000
263.19	-0.000
263.41	-0.000
263.62	-0.000
263.83	-0.000
264.04	-0.000
264.26	-0.000
264.47	-0.000
264.68	-0.000
264.89	-0.000
265.11	-0.000
265.32	-0.000
265.53	-0.000
265.74	-0.000
265.96	-0.000
266.17	-0.000
266.38	-0.000
266.59	-0.000
266.81	-0.000
267.02	-0.000
267.23	-0.000
267.44	-0.000
267.65	-0.000
267.87	-0.000
268.08	-0.000
268.29	-0.000
268.50	-0.000
268.72	-0.000
268.93	-0.000
269.14	-0.000
269.35	-0.000
269.57	-0.000
269.78	-0.000
269.99	-0.000
270.20	-0.000
270.41	-0.000
270.63	-0.000
270.84	-0.000
271.05	-0.000
271.26	-0.000
271.48	-0.000
271.69	-0.000
271.90	-0.000
272.11	-0.000
272.32	-0.000
272.54	-0.000
272.75	-0.000
272.96	-0.000
273.17	-0.000
273.39	-0.000
273.60	-0.000
273.81	-0.000
274.02	-0.000
274.23	-0.000
274.45	-0.000
274.66	-0.000
274.87	-0.000
275.08	-0.000
275.29	-0.000
275.51	-0.000
275.72	-0.000
275.93	-0.000
276.14	-0.000
276.35	-0.000
276.57	-0.000
276.78	-0.000
276.99	-0.000
277.20	-0.000
277.41	-0.000
277.63	-0.000
277.84	-0.000
278.05	-0.000
278.26	-0.000
278.47	-0.000
278.69	-0.000
278.90	-0.000
279.11	-0.000
279.32	-0.000
279.53	-0.000
279.74	-0.000
279.96	-0.000
280.17	-0.000
280.38	-0.000
280.59	-0.000
280.80	-0.000
281.02	-0.000
281.23	-0.000
281.44	-0.000
281.65	-0.000
281.86	-0.000
282.07	-0.000
282.29	-0.000
282.50	-0.000
282.71	-0.000
282.92	-0.000
283.13	-0.000
283.35	-0.000
283.56	-0.000
283.77	-0.000
283.98	-0.000
284.19	-0.000
284.40	-0.000
284.62	-0.000
284.83	-0.000
285.04	-0.000
285.25	-0.000
285.46	-0.000
285.67	-0.000
285.88	-0.000
286.10	-0.000
286.31	-0.000
286.52	-0.000
286.73	-0.000
286.94	-0.000
287.15	-0.000
287.37	-0.000
287.58	-0.000
287.79	-0.000
288.00	-0.000
288.21	-0.000
288.42	-0.000
288.63	-0.000
288.85	-0.000
289.06	-0.000
289.27	-0.000
289.48	-0.000
289.69	-0.000
289.90	-0.000
290.11	-0.000
290.33	-0.000
290.54	-0.000
290.75	-0.000
290.96	-0.000
291.17	-0.000
291.38	-0.000
291.59	-0.000
291.81	-0.000
292.02	-0.000
292.23	-0.000
292.44	-0.000
292.65	3.254
292.86	-0.000
293.07	-0.000
293.28	2.315
293.50	2.870
293.71	-0.000
293.92	-0.000
294.13	-0.000
294.34	-0.000
294.55	-0.000
294.76	-0.000
294.97	2.552
295.19	-0.000
295.40	-0.000
295.61	-0.000
295.82	2.240
296.03	2.002
296.24	2.144
296.45	1.740
296.66	1.523
296.87	1.531
297.09	1.590
297.30	1.689
297.51	1.478
297.72	1.451
297.93	1.515
298.14	1.493
298.35	1.451
298.56	1.429
298.77	1.511
298.99	1.502
299.20	1.471
299.41	1.453
299.62	1.443
299.83	1.436
300.04	1.389
300.25	1.380
300.46	1.416
300.67	1.396
300.88	1.355
301.10	1.358
301.31	1.416
301.52	1.376
301.73	1.327
301.94	1.319
302.15	1.338
302.36	1.304
302.57	1.253
302.78	1.261
302.99	1.293
303.20	1.305
303.41	1.233
303.63	1.214
303.84	1.222
304.05	1.219
304.26	1.175
304.47	1.178
304.68	1.186
304.89	1.179
305.10	1.140
305.31	1.131
305.52	1.166
305.73	1.163
305.94	1.131
306.15	1.128
306.37	1.146
306.58	1.149
306.79	1.122
307.00	1.137
307.21	1.168
307.42	1.165
307.63	1.136
307.84	1.111
308.05	1.139
308.26	1.140
308.47	1.115
308.68	1.116
308.89	1.121
309.10	1.118
309.31	1.084
309.52	1.077
309.73	1.090
309.95	1.085
310.16	1.062
310.37	1.054
310.58	1.073
310.79	1.074
311.00	1.067
311.21	1.070
311.42	1.074
311.63	1.069
311.84	1.052
312.05	1.050
312.26	1.069
312.47	1.079
312.68	1.057
312.89	1.041
313.10	1.046
313.31	1.024
313.52	1.020
313.73	1.021
313.94	1.028
314.15	1.014
314.36	0.996
314.57	0.991
314.78	0.981
314.99	0.976
315.21	0.964
315.42	0.968
315.63	0.981
315.84	0.963
316.05	0.948
316.26	0.953
316.47	0.970
316.68	0.966
316.89	0.948
317.10	0.964
317.31	0.971
317.52	0.972
317.73	0.952
317.94	0.952
318.15	0.989
318.36	0.990
318.57	0.973
318.78	0.961
318.99	0.992
319.20	0.989
319.41	0.961
319.62	0.961
319.83	0.972
320.04	0.970
320.25	0.958
320.46	0.930
320.67	0.935
320.88	0.932
321.09	0.920
321.30	0.908
321.51	0.921
321.72	0.919
321.93	0.905
322.14	0.901
322.35	0.924
322.56	0.925
322.77	0.913
322.98	0.923
323.19	0.932
323.40	0.937
323.61	0.917
323.82	0.913
324.03	0.920
324.24	0.917
324.45	0.903
324.66	0.887
324.87	0.886
325.08	0.885
325.29	0.866
325.50	0.859
325.71	0.865
325.92	0.873
326.13	0.861
326.34	0.861
326.55	0.870
326.76	0.870
326.97	0.859
327.18	0.854
327.39	0.878
327.60	0.880
327.80	0.878
328.01	0.877
328.22	0.877
328.43	0.880
328.64	0.868
328.85	0.872
329.06	0.874
329.27	0.875
329.48	0.869
329.69	0.852
329.90	0.862
330.11	0.856
330.32	0.848
330.53	0.843
330.74	0.846
330.95	0.845
331.16	0.831
331.37	0.838
331.58	0.840
331.79	0.840
332.00	0.831
332.21	0.824
332.42	0.829
332.63	0.821
332.83	0.816
333.04	0.817
333.25	0.828
333.46	0.826
333.67	0.813
333.88	0.814
334.09	0.823
334.30	0.820
334.51	0.812
334.72	0.808
334.93	0.813
335.14	0.812
335.35	0.805
335.56	0.801
335.77	0.810
335.98	0.808
336.18	0.800
336.39	0.795
336.60	0.801
336.81	0.799
337.02	0.797
337.23	0.800
337.44	0.803
337.65	0.804
337.86	0.795
338.07	0.792
338.28	0.798
338.49	0.797
338.70	0.789
338.91	0.795
339.11	0.801
339.32	0.799
339.53	0.789
339.74	0.786
339.95	0.785
340.16	0.783
340.37	0.775
340.58	0.773
340.79	0.780
341.00	0.779
341.21	0.768
341.41	0.770
341.62	0.771
341.83	0.771
342.04	0.766
342.25	0.775
342.46	0.780
342.67	0.779
342.88	0.772
343.09	0.770
343.30	0.779
343.50	0.782
343.71	0.773
343.92	0.774
344.13	0.779
344.34	0.779
344.55	0.765
344.76	0.763
344.97	0.768
345.18	0.767
345.38	0.763
345.59	0.758
345.80	0.759
346.01	0.756
346.22	0.751
346.43	0.745
346.64	0.753
346.85	0.753
347.06	0.746
347.26	0.747
347.47	0.752
347.68	0.748
347.89	0.744
348.10	0.739
348.31	0.746
348.52	0.745
348.73	0.743
348.93	0.740
349.14	0.742
349.35	0.742
349.56	0.736
349.77	0.731
349.98	0.738
350.19	0.735
350.39	0.731
350.60	0.727
350.81	0.742
351.02	0.741
351.23	0.737
351.44	0.740
351.65	0.743
351.86	0.740
352.06	0.739
352.27	0.740
352.48	0.742
352.69	0.742
352.90	0.737
353.11	0.725
353.31	0.732
353.52	0.727
353.73	0.719
353.94	0.721
354.15	0.727
354.36	0.727
354.57	0.718
354.77	0.720
354.98	0.720
355.19	0.718
355.40	0.717
355.61	0.723
355.82	0.729
356.02	0.729
356.23	0.722
356.44	0.723
356.65	0.728
356.86	0.729
357.07	0.722
357.27	0.727
357.48	0.731
357.69	0.727
357.90	0.712
358.11	0.709
358.32	0.714
358.52	0.717
358.73	0.707
358.94	0.709
359.15	0.714
359.36	0.715
359.56	0.710
359.77	0.707
359.98	0.715
360.19	0.714
360.40	0.711
360.61	0.710
360.81	0.711
361.02	0.711
361.23	0.703
361.44	0.701
361.65	0.703
361.85	0.702
362.06	0.699
362.27	0.701
362.48	0.702
362.69	0.705
362.89	0.699
363.10	0.700
363.31	0.705
363.52	0.708
363.73	0.703
363.93	0.703
364.14	0.706
364.35	0.708
364.56	0.698
364.77	0.699
364.97	0.702
365.18	0.703
365.39	0.697
365.60	0.695
365.81	0.696
366.01	0.696
366.22	0.693
366.43	0.692
366.64	0.695
366.84	0.702
367.05	0.699
367.26	0.698
367.47	0.700
367.68	0.700
367.88	0.696
368.09	0.695
368.30	0.698
368.51	0.697
368.71	0.695
368.92	0.699
369.13	0.698
369.34	0.698
369.55	0.696
369.75	0.697
369.96	0.704
370.17	0.704
370.38	0.700
370.58	0.699
370.79	0.706
371.00	0.704
371.21	0.695
371.41	0.700
371.62	0.704
371.83	0.700
372.04	0.697
372.24	0.691
372.45	0.693
372.66	0.694
372.87	0.690
373.07	0.687
373.28	0.687
373.49	0.691
373.70	0.681
373.90	0.680
374.11	0.689
374.32	0.689
374.53	0.688
374.73	0.688
374.94	0.691
375.15	0.692
375.36	0.688
375.56	0.698
375.77	0.699
375.98	0.699
376.19	0.696
376.39	0.690
376.60	0.694
376.81	0.695
377.02	0.692
377.22	0.691
377.43	0.691
377.64	0.691
377.84	0.682
378.05	0.686
378.26	0.692
378.47	0.691
378.67	0.687
378.88	0.684
379.09	0.686
379.30	0.686
379.50	0.683
379.71	0.685
379.92	0.688
380.12	0.687
380.33	0.678
380.54	0.676
380.75	0.683
380.95	0.684
381.16	0.680
381.37	0.680
381.57	0.682
381.78	0.683
381.99	0.682
382.20	0.682
382.40	0.685
382.61	0.686
382.82	0.681
383.02	0.674
383.23	0.678
383.44	0.678
383.64	0.676
383.85	0.679
384.06	0.682
384.27	0.679
384.47	0.676
384.68	0.677
384.89	0.683
385.09	0.683
385.30	0.682
385.51	0.681
385.71	0.684
385.92	0.684
386.13	0.681
386.33	0.683
386.54	0.685
386.75	0.683
386.95	0.678
387.16	0.673
387.37	0.675
387.58	0.675
387.78	0.672
387.99	0.671
388.20	0.673
388.40	0.670
388.61	0.666
388.82	0.669
389.02	0.672
389.23	0.672
389.44	0.670
389.64	0.670
389.85	0.681
390.06	0.681
390.26	0.680
390.47	0.680
390.68	0.682
390.88	0.680
391.09	0.675
391.30	0.673
391.50	0.674
391.71	0.674
391.92	0.671
392.12	0.663
392.33	0.664
392.53	0.664
392.74	0.663
392.95	0.663
393.15	0.666
393.36	0.668
393.57	0.666
393.77	0.668
393.98	0.671
394.19	0.671
394.39	0.670
394.60	0.672
394.81	0.675
395.01	0.673
395.22	0.670
395.43	0.671
395.63	0.675
395.84	0.676
396.04	0.671
396.25	0.673
396.46	0.675
396.66	0.672
396.87	0.668
397.08	0.665
397.28	0.667
397.49	0.667
397.69	0.664
397.90	0.659
398.11	0.661
398.31	0.661
398.52	0.657
398.73	0.657
398.93	0.657
399.14	0.656
399.34	0.655
399.55	0.657
399.76	0.657
399.96	0.658
400.17	0.656
400.37	0.655
400.58	0.661
400.79	0.663
400.99	0.660
401.20	0.666
401.41	0.669
401.61	0.669
401.82	0.673
402.02	0.673
402.23	0.675
402.44	0.674
402.64	0.673
402.85	0.668
403.05	0.667
403.26	0.666
403.47	0.659
403.67	0.658
403.88	0.659
404.08	0.653
404.29	0.651
404.50	0.650
404.70	0.651
404.91	0.650
405.11	0.647
405.32	0.648
405.52	0.649
405.73	0.649
405.94	0.646
406.14	0.648
406.35	0.650
406.55	0.650
406.76	0.647
406.97	0.648
407.17	0.650
407.38	0.650
407.58	0.647
407.79	0.650
407.99	0.652
408.20	0.653
408.41	0.649
408.61	0.647
408.82	0.649
409.02	0.649
409.23	0.646
409.43	0.645
409.64	0.647
409.84	0.647
410.05	0.644
410.26	0.642
410.46	0.642
410.67	0.642
410.87	0.643
411.08	0.645
411.28	0.646
411.49	0.648
411.69	0.645
411.90	0.646
412.11	0.648
412.31	0.649
412.52	0.647
412.72	0.647
412.93	0.649
413.13	0.647
413.34	0.643
413.54	0.645
413.75	0.647
413.95	0.646
414.16	0.643
414.37	0.645
414.57	0.646
414.78	0.649
414.98	0.646
415.19	0.648
415.39	0.646
415.60	0.648
415.80	0.647
416.01	0.645
416.21	0.648
416.42	0.648
416.62	0.643
416.83	0.644
417.03	0.644
417.24	0.644
417.44	0.641
417.65	0.640
417.86	0.641
418.06	0.639
418.27	0.637
418.47	0.638
418.68	0.639
418.88	0.639
419.09	0.637
419.29	0.637
419.50	0.638
419.70	0.638
419.91	0.636
420.11	0.635
420.32	0.638
420.52	0.637
420.73	0.636
420.93	0.637
421.14	0.639
421.34	0.638
421.55	0.634
421.75	0.634
421.96	0.636
422.16	0.637
422.37	0.635
422.57	0.633
422.78	0.635
422.98	0.632
423.19	0.630
423.39	0.629
423.60	0.633
423.80	0.635
424.01	0.633
424.21	0.635
424.42	0.636
424.62	0.636
424.83	0.635
425.03	0.635
425.23	0.638
425.44	0.638
425.64	0.638
425.85	0.637
426.05	0.638
426.26	0.639
426.46	0.636
426.67	0.635
426.87	0.641
427.08	0.641
427.28	0.639
427.49	0.639
427.69	0.641
427.90	0.640
428.10	0.636
428.31	0.636
428.51	0.638
428.71	0.637
428.92	0.637
429.12	0.634
429.33	0.635
429.53	0.639
429.74	0.642
429.94	0.643
430.15	0.643
430.35	0.644
430.56	0.641
430.76	0.640
430.96	0.642
431.17	0.639
431.37	0.636
431.58	0.635
431.78	0.633
431.99	0.626
432.19	0.628
432.40	0.630
432.60	0.631
432.80	0.633
433.01	0.631
433.21	0.632
433.42	0.634
433.62	0.635
433.83	0.634
434.03	0.637
434.23	0.641
434.44	0.639
434.64	0.637
434.85	0.642
435.05	0.643
435.26	0.643
435.46	0.641
435.66	0.641
435.87	0.641
436.07	0.641
436.28	0.636
436.48	0.633
436.69	0.633
436.89	0.633
437.09	0.627
437.30	0.626
437.50	0.627
437.71	0.638
437.91	0.637
438.11	0.639
438.32	0.644
438.52	0.645
438.73	0.644
438.93	0.642
439.13	0.643
439.34	0.646
439.54	0.644
439.75	0.644
439.95	0.635
440.15	0.639
440.36	0.638
440.56	0.635
440.77	0.636
440.97	0.637
441.17	0.635
441.38	0.637
441.58	0.635
441.79	0.634
441.99	0.633
442.19	0.632
442.40	0.631
442.60	0.630
442.81	0.628
443.01	0.628
443.21	0.629
443.42	0.629
443.62	0.627
443.82	0.627
444.03	0.629
444.23	0.629
444.44	0.629
444.64	0.628
444.84	0.629
445.05	0.630
445.25	0.627
445.45	0.628
445.66	0.631
445.86	0.631
446.06	0.632
446.27	0.631
446.47	0.635
446.68	0.634
446.88	0.633
447.08	0.632
447.29	0.634
447.49	0.635
447.69	0.633
447.90	0.631
448.10	0.635
448.30	0.632
448.51	0.633
448.71	0.631
448.91	0.634
449.12	0.633
449.32	0.634
449.52	0.633
449.73	0.637
449.93	0.637
450.14	0.637
450.34	0.637
450.54	0.640
450.75	0.637
450.95	0.636
451.15	0.635
451.36	0.638
451.56	0.636
451.76	0.634
451.97	0.631
452.17	0.632
452.37	0.631
452.58	0.627
452.78	0.627
452.98	0.630
453.19	0.630
453.39	0.630
453.59	0.629
453.79	0.630
454.00	0.631
454.20	0.630
454.40	0.631
454.61	0.633
454.81	0.634
455.01	0.632
455.22	0.632
455.42	0.635
455.62	0.633
455.83	0.632
456.03	0.636
456.23	0.637
456.44	0.637
456.64	0.636
456.84	0.636
457.04	0.638
457.25	0.637
457.45	0.634
457.65	0.632
457.86	0.634
458.06	0.632
458.26	0.627
458.47	0.626
458.67	0.627
458.87	0.627
459.07	0.624
459.28	0.627
459.48	0.629
459.68	0.630
459.89	0.628
