SpectraSuite Data File
++++++++++++++++++++++++++++++++++++
Date: Fri Jun 19 12:46:46 CEST 2015
User: introlabs
Dark Spectrum Present: Yes
Reference Spectrum Present: Yes
Number of Sampled Component Spectra: 1
Spectrometers: USB4H08886
Integration Time (usec): 745692 (USB4H08886)
Spectra Averaged: 5 (USB4H08886)
Boxcar Smoothing: 5 (USB4H08886)
Correct for Electrical Dark: Yes (USB4H08886)
Strobe/Lamp Enabled: No (USB4H08886)
Correct for Detector Non-linearity: Yes (USB4H08886)
Correct for Stray Light: Yes (USB4H08886)
Number of Pixels in Processed Spectrum: 3648
>>>>>Begin Processed Spectral Data<<<<<
178.14	-0.000
178.36	-0.000
178.57	-0.000
178.79	-0.000
179.01	-0.000
179.22	-0.000
179.44	-0.000
179.65	-0.000
179.87	-0.000
180.08	-0.000
180.30	-0.000
180.52	-0.000
180.73	-0.000
180.95	-0.000
181.16	-0.000
181.38	-0.000
181.59	-0.000
181.81	-0.000
182.03	-0.000
182.24	-0.000
182.46	-0.000
182.67	-0.000
182.89	-0.000
183.10	-0.000
183.32	-0.000
183.54	-0.000
183.75	-0.000
183.97	-0.000
184.18	-0.000
184.40	-0.000
184.61	-0.000
184.83	-0.000
185.04	-0.000
185.26	-0.000
185.48	-0.000
185.69	-0.000
185.91	-0.000
186.12	-0.000
186.34	-0.000
186.55	-0.000
186.77	-0.000
186.98	-0.000
187.20	-0.000
187.42	-0.000
187.63	-0.000
187.85	-0.000
188.06	-0.000
188.28	-0.000
188.49	-0.000
188.71	-0.000
188.92	-0.000
189.14	-0.000
189.36	-0.000
189.57	-0.000
189.79	-0.000
190.00	-0.000
190.22	-0.000
190.43	-0.000
190.65	-0.000
190.86	-0.000
191.08	-0.000
191.29	-0.000
191.51	-0.000
191.72	-0.000
191.94	-0.000
192.16	-0.000
192.37	-0.000
192.59	-0.000
192.80	-0.000
193.02	-0.000
193.23	-0.000
193.45	-0.000
193.66	-0.000
193.88	-0.000
194.09	-0.000
194.31	-0.000
194.52	-0.000
194.74	-0.000
194.95	-0.000
195.17	-0.000
195.38	-0.000
195.60	-0.000
195.81	-0.000
196.03	-0.000
196.25	-0.000
196.46	-0.000
196.68	-0.000
196.89	-0.000
197.11	-0.000
197.32	-0.000
197.54	-0.000
197.75	-0.000
197.97	-0.000
198.18	-0.000
198.40	-0.000
198.61	-0.000
198.83	-0.000
199.04	-0.000
199.26	-0.000
199.47	-0.000
199.69	-0.000
199.90	-0.000
200.12	-0.000
200.33	-0.000
200.55	-0.000
200.76	-0.000
200.98	-0.000
201.19	-0.000
201.41	-0.000
201.62	-0.000
201.84	-0.000
202.05	-0.000
202.27	-0.000
202.48	-0.000
202.70	-0.000
202.91	-0.000
203.13	-0.000
203.34	-0.000
203.56	-0.000
203.77	-0.000
203.99	-0.000
204.20	-0.000
204.42	-0.000
204.63	-0.000
204.85	-0.000
205.06	-0.000
205.28	-0.000
205.49	-0.000
205.71	-0.000
205.92	-0.000
206.14	-0.000
206.35	-0.000
206.56	-0.000
206.78	-0.000
206.99	-0.000
207.21	-0.000
207.42	-0.000
207.64	-0.000
207.85	-0.000
208.07	-0.000
208.28	-0.000
208.50	-0.000
208.71	-0.000
208.93	-0.000
209.14	-0.000
209.36	-0.000
209.57	-0.000
209.79	-0.000
210.00	-0.000
210.22	-0.000
210.43	-0.000
210.64	-0.000
210.86	-0.000
211.07	-0.000
211.29	-0.000
211.50	-0.000
211.72	-0.000
211.93	-0.000
212.15	-0.000
212.36	-0.000
212.58	-0.000
212.79	-0.000
213.01	-0.000
213.22	-0.000
213.43	-0.000
213.65	-0.000
213.86	-0.000
214.08	-0.000
214.29	-0.000
214.51	-0.000
214.72	-0.000
214.94	-0.000
215.15	-0.000
215.36	-0.000
215.58	-0.000
215.79	-0.000
216.01	-0.000
216.22	-0.000
216.44	-0.000
216.65	-0.000
216.87	-0.000
217.08	-0.000
217.29	-0.000
217.51	-0.000
217.72	-0.000
217.94	-0.000
218.15	-0.000
218.37	-0.000
218.58	-0.000
218.80	-0.000
219.01	-0.000
219.22	-0.000
219.44	-0.000
219.65	-0.000
219.87	-0.000
220.08	-0.000
220.30	-0.000
220.51	-0.000
220.72	-0.000
220.94	-0.000
221.15	-0.000
221.37	-0.000
221.58	-0.000
221.79	-0.000
222.01	-0.000
222.22	-0.000
222.44	-0.000
222.65	-0.000
222.87	-0.000
223.08	-0.000
223.29	-0.000
223.51	-0.000
223.72	-0.000
223.94	-0.000
224.15	-0.000
224.36	-0.000
224.58	-0.000
224.79	-0.000
225.01	-0.000
225.22	-0.000
225.44	-0.000
225.65	-0.000
225.86	-0.000
226.08	-0.000
226.29	-0.000
226.51	-0.000
226.72	-0.000
226.93	-0.000
227.15	-0.000
227.36	-0.000
227.58	-0.000
227.79	-0.000
228.00	-0.000
228.22	-0.000
228.43	-0.000
228.65	-0.000
228.86	-0.000
229.07	-0.000
229.29	-0.000
229.50	-0.000
229.72	-0.000
229.93	-0.000
230.14	-0.000
230.36	-0.000
230.57	-0.000
230.78	-0.000
231.00	-0.000
231.21	-0.000
231.43	-0.000
231.64	-0.000
231.85	-0.000
232.07	-0.000
232.28	-0.000
232.50	-0.000
232.71	-0.000
232.92	-0.000
233.14	-0.000
233.35	-0.000
233.56	-0.000
233.78	-0.000
233.99	-0.000
234.21	-0.000
234.42	-0.000
234.63	-0.000
234.85	-0.000
235.06	-0.000
235.27	-0.000
235.49	-0.000
235.70	-0.000
235.91	-0.000
236.13	-0.000
236.34	-0.000
236.56	-0.000
236.77	-0.000
236.98	-0.000
237.20	-0.000
237.41	-0.000
237.62	-0.000
237.84	-0.000
238.05	-0.000
238.26	-0.000
238.48	-0.000
238.69	-0.000
238.91	-0.000
239.12	-0.000
239.33	-0.000
239.55	-0.000
239.76	-0.000
239.97	-0.000
240.19	-0.000
240.40	-0.000
240.61	-0.000
240.83	-0.000
241.04	-0.000
241.25	-0.000
241.47	-0.000
241.68	-0.000
241.89	-0.000
242.11	-0.000
242.32	-0.000
242.53	-0.000
242.75	-0.000
242.96	-0.000
243.17	-0.000
243.39	-0.000
243.60	-0.000
243.81	-0.000
244.03	-0.000
244.24	-0.000
244.45	-0.000
244.67	-0.000
244.88	-0.000
245.09	-0.000
245.31	-0.000
245.52	-0.000
245.73	-0.000
245.95	-0.000
246.16	-0.000
246.37	-0.000
246.59	-0.000
246.80	-0.000
247.01	-0.000
247.23	-0.000
247.44	-0.000
247.65	-0.000
247.87	-0.000
248.08	-0.000
248.29	-0.000
248.51	-0.000
248.72	-0.000
248.93	-0.000
249.15	-0.000
249.36	-0.000
249.57	-0.000
249.78	-0.000
250.00	-0.000
250.21	-0.000
250.42	-0.000
250.64	-0.000
250.85	-0.000
251.06	-0.000
251.28	-0.000
251.49	-0.000
251.70	-0.000
251.92	-0.000
252.13	-0.000
252.34	-0.000
252.55	-0.000
252.77	-0.000
252.98	-0.000
253.19	-0.000
253.41	-0.000
253.62	-0.000
253.83	-0.000
254.05	-0.000
254.26	-0.000
254.47	-0.000
254.68	-0.000
254.90	-0.000
255.11	-0.000
255.32	-0.000
255.54	-0.000
255.75	-0.000
255.96	-0.000
256.17	-0.000
256.39	-0.000
256.60	-0.000
256.81	-0.000
257.03	-0.000
257.24	-0.000
257.45	-0.000
257.66	-0.000
257.88	-0.000
258.09	-0.000
258.30	-0.000
258.51	-0.000
258.73	-0.000
258.94	-0.000
259.15	-0.000
259.37	-0.000
259.58	-0.000
259.79	-0.000
260.00	-0.000
260.22	-0.000
260.43	-0.000
260.64	-0.000
260.85	-0.000
261.07	-0.000
261.28	-0.000
261.49	-0.000
261.71	-0.000
261.92	-0.000
262.13	-0.000
262.34	-0.000
262.56	-0.000
262.77	-0.000
262.98	-0.000
263.19	-0.000
263.41	-0.000
263.62	-0.000
263.83	-0.000
264.04	-0.000
264.26	-0.000
264.47	-0.000
264.68	-0.000
264.89	-0.000
265.11	-0.000
265.32	-0.000
265.53	-0.000
265.74	-0.000
265.96	-0.000
266.17	-0.000
266.38	-0.000
266.59	-0.000
266.81	-0.000
267.02	-0.000
267.23	-0.000
267.44	-0.000
267.65	-0.000
267.87	-0.000
268.08	-0.000
268.29	-0.000
268.50	-0.000
268.72	-0.000
268.93	-0.000
269.14	-0.000
269.35	-0.000
269.57	-0.000
269.78	-0.000
269.99	-0.000
270.20	-0.000
270.41	-0.000
270.63	-0.000
270.84	-0.000
271.05	-0.000
271.26	-0.000
271.48	-0.000
271.69	-0.000
271.90	-0.000
272.11	-0.000
272.32	-0.000
272.54	-0.000
272.75	-0.000
272.96	-0.000
273.17	-0.000
273.39	-0.000
273.60	-0.000
273.81	-0.000
274.02	-0.000
274.23	-0.000
274.45	-0.000
274.66	-0.000
274.87	-0.000
275.08	-0.000
275.29	-0.000
275.51	-0.000
275.72	-0.000
275.93	-0.000
276.14	-0.000
276.35	-0.000
276.57	-0.000
276.78	-0.000
276.99	-0.000
277.20	-0.000
277.41	-0.000
277.63	-0.000
277.84	-0.000
278.05	-0.000
278.26	-0.000
278.47	-0.000
278.69	-0.000
278.90	-0.000
279.11	-0.000
279.32	-0.000
279.53	-0.000
279.74	-0.000
279.96	-0.000
280.17	-0.000
280.38	-0.000
280.59	-0.000
280.80	-0.000
281.02	-0.000
281.23	-0.000
281.44	-0.000
281.65	-0.000
281.86	-0.000
282.07	-0.000
282.29	-0.000
282.50	-0.000
282.71	-0.000
282.92	-0.000
283.13	-0.000
283.35	-0.000
283.56	-0.000
283.77	-0.000
283.98	-0.000
284.19	-0.000
284.40	-0.000
284.62	-0.000
284.83	-0.000
285.04	-0.000
285.25	-0.000
285.46	-0.000
285.67	-0.000
285.88	-0.000
286.10	-0.000
286.31	-0.000
286.52	-0.000
286.73	-0.000
286.94	-0.000
287.15	-0.000
287.37	-0.000
287.58	-0.000
287.79	-0.000
288.00	-0.000
288.21	-0.000
288.42	-0.000
288.63	-0.000
288.85	-0.000
289.06	-0.000
289.27	-0.000
289.48	-0.000
289.69	-0.000
289.90	-0.000
290.11	-0.000
290.33	-0.000
290.54	-0.000
290.75	-0.000
290.96	-0.000
291.17	-0.000
291.38	-0.000
291.59	-0.000
291.81	-0.000
292.02	-0.000
292.23	-0.000
292.44	-0.000
292.65	-0.000
292.86	-0.000
293.07	-0.000
293.28	-0.000
293.50	-0.000
293.71	-0.000
293.92	-0.000
294.13	-0.000
294.34	-0.000
294.55	-0.000
294.76	-0.000
294.97	-0.000
295.19	-0.000
295.40	-0.000
295.61	-0.000
295.82	-0.000
296.03	-0.000
296.24	-0.000
296.45	-0.000
296.66	2.123
296.87	2.155
297.09	2.500
297.30	-0.000
297.51	1.991
297.72	1.909
297.93	2.148
298.14	2.062
298.35	1.947
298.56	1.879
298.77	2.139
298.99	2.064
299.20	1.976
299.41	1.914
299.62	1.869
299.83	1.842
300.04	1.728
300.25	1.697
300.46	1.762
300.67	1.726
300.88	1.645
301.10	1.645
301.31	1.760
301.52	1.672
301.73	1.583
301.94	1.579
302.15	1.612
302.36	1.552
302.57	1.472
302.78	1.482
302.99	1.532
303.20	1.554
303.41	1.444
303.63	1.417
303.84	1.426
304.05	1.424
304.26	1.352
304.47	1.356
304.68	1.363
304.89	1.351
305.10	1.299
305.31	1.289
305.52	1.332
305.73	1.323
305.94	1.276
306.15	1.268
306.37	1.293
306.58	1.302
306.79	1.265
307.00	1.285
307.21	1.333
307.42	1.327
307.63	1.281
307.84	1.250
308.05	1.289
308.26	1.289
308.47	1.261
308.68	1.259
308.89	1.261
309.10	1.259
309.31	1.217
309.52	1.206
309.73	1.223
309.95	1.216
310.16	1.183
310.37	1.173
310.58	1.192
310.79	1.189
311.00	1.183
311.21	1.186
311.42	1.189
311.63	1.183
311.84	1.158
312.05	1.155
312.26	1.183
312.47	1.194
312.68	1.166
312.89	1.150
313.10	1.162
313.31	1.133
313.52	1.130
313.73	1.132
313.94	1.135
314.15	1.121
314.36	1.097
314.57	1.088
314.78	1.076
314.99	1.072
315.21	1.058
315.42	1.060
315.63	1.075
315.84	1.052
316.05	1.036
316.26	1.046
316.47	1.063
316.68	1.059
316.89	1.039
317.10	1.062
317.31	1.070
317.52	1.069
317.73	1.046
317.94	1.046
318.15	1.091
318.36	1.090
318.57	1.069
318.78	1.058
318.99	1.096
319.20	1.092
319.41	1.053
319.62	1.055
319.83	1.069
320.04	1.065
320.25	1.048
320.46	1.016
320.67	1.019
320.88	1.015
321.09	0.999
321.30	0.983
321.51	1.000
321.72	0.998
321.93	0.979
322.14	0.973
322.35	1.001
322.56	1.002
322.77	0.986
322.98	0.997
323.19	1.007
323.40	1.013
323.61	0.991
323.82	0.984
324.03	0.991
324.24	0.990
324.45	0.976
324.66	0.957
324.87	0.957
325.08	0.957
325.29	0.937
325.50	0.930
325.71	0.938
325.92	0.945
326.13	0.932
326.34	0.932
326.55	0.940
326.76	0.937
326.97	0.926
327.18	0.919
327.39	0.946
327.60	0.948
327.80	0.946
328.01	0.943
328.22	0.944
328.43	0.948
328.64	0.936
328.85	0.942
329.06	0.945
329.27	0.944
329.48	0.939
329.69	0.919
329.90	0.929
330.11	0.921
330.32	0.915
330.53	0.908
330.74	0.908
330.95	0.906
331.16	0.891
331.37	0.898
331.58	0.899
331.79	0.898
332.00	0.890
332.21	0.884
332.42	0.888
332.63	0.878
332.83	0.874
333.04	0.877
333.25	0.889
333.46	0.886
333.67	0.872
333.88	0.875
334.09	0.885
334.30	0.881
334.51	0.870
334.72	0.867
334.93	0.871
335.14	0.870
335.35	0.862
335.56	0.857
335.77	0.868
335.98	0.867
336.18	0.859
336.39	0.851
336.60	0.857
336.81	0.855
337.02	0.853
337.23	0.857
337.44	0.859
337.65	0.861
337.86	0.851
338.07	0.846
338.28	0.851
338.49	0.849
338.70	0.841
338.91	0.847
339.11	0.855
339.32	0.851
339.53	0.839
339.74	0.837
339.95	0.834
340.16	0.832
340.37	0.824
340.58	0.822
340.79	0.827
341.00	0.825
341.21	0.814
341.41	0.816
341.62	0.818
341.83	0.820
342.04	0.815
342.25	0.825
342.46	0.831
342.67	0.829
342.88	0.822
343.09	0.822
343.30	0.831
343.50	0.834
343.71	0.824
343.92	0.824
344.13	0.829
344.34	0.828
344.55	0.812
344.76	0.810
344.97	0.815
345.18	0.815
345.38	0.811
345.59	0.805
345.80	0.804
346.01	0.801
346.22	0.795
346.43	0.789
346.64	0.798
346.85	0.797
347.06	0.790
347.26	0.790
347.47	0.793
347.68	0.789
347.89	0.785
348.10	0.780
348.31	0.789
348.52	0.788
348.73	0.784
348.93	0.781
349.14	0.784
349.35	0.785
349.56	0.778
349.77	0.775
349.98	0.782
350.19	0.780
350.39	0.775
350.60	0.770
350.81	0.787
351.02	0.786
351.23	0.781
351.44	0.783
351.65	0.787
351.86	0.784
352.06	0.782
352.27	0.781
352.48	0.783
352.69	0.782
352.90	0.776
353.11	0.764
353.31	0.771
353.52	0.767
353.73	0.759
353.94	0.760
354.15	0.766
354.36	0.766
354.57	0.758
354.77	0.760
354.98	0.760
355.19	0.760
355.40	0.758
355.61	0.764
355.82	0.769
356.02	0.769
356.23	0.761
356.44	0.763
356.65	0.767
356.86	0.767
357.07	0.760
357.27	0.764
357.48	0.768
357.69	0.763
357.90	0.748
358.11	0.745
358.32	0.750
358.52	0.753
358.73	0.743
358.94	0.746
359.15	0.752
359.36	0.753
359.56	0.747
359.77	0.744
359.98	0.752
360.19	0.752
360.40	0.748
360.61	0.748
360.81	0.747
361.02	0.748
361.23	0.739
361.44	0.737
361.65	0.738
361.85	0.738
362.06	0.735
362.27	0.736
362.48	0.737
362.69	0.740
362.89	0.734
363.10	0.735
363.31	0.740
363.52	0.743
363.73	0.738
363.93	0.738
364.14	0.741
364.35	0.743
364.56	0.733
364.77	0.735
364.97	0.738
365.18	0.738
365.39	0.732
365.60	0.728
365.81	0.730
366.01	0.730
366.22	0.726
366.43	0.725
366.64	0.727
366.84	0.733
367.05	0.729
367.26	0.729
367.47	0.731
367.68	0.732
367.88	0.729
368.09	0.727
368.30	0.730
368.51	0.730
368.71	0.729
368.92	0.733
369.13	0.732
369.34	0.732
369.55	0.730
369.75	0.730
369.96	0.738
370.17	0.737
370.38	0.733
370.58	0.731
370.79	0.738
371.00	0.736
371.21	0.726
371.41	0.731
371.62	0.736
371.83	0.731
372.04	0.728
372.24	0.720
372.45	0.723
372.66	0.723
372.87	0.720
373.07	0.716
373.28	0.717
373.49	0.721
373.70	0.711
373.90	0.710
374.11	0.720
374.32	0.721
374.53	0.719
374.73	0.720
374.94	0.723
375.15	0.723
375.36	0.720
375.56	0.729
375.77	0.730
375.98	0.731
376.19	0.727
376.39	0.720
376.60	0.724
376.81	0.724
377.02	0.720
377.22	0.719
377.43	0.719
377.64	0.718
377.84	0.709
378.05	0.713
378.26	0.719
378.47	0.719
378.67	0.714
378.88	0.711
379.09	0.713
379.30	0.714
379.50	0.712
379.71	0.714
379.92	0.718
380.12	0.717
380.33	0.708
380.54	0.704
380.75	0.711
380.95	0.712
381.16	0.709
381.37	0.709
381.57	0.711
381.78	0.711
381.99	0.710
382.20	0.710
382.40	0.713
382.61	0.714
382.82	0.710
383.02	0.703
383.23	0.706
383.44	0.707
383.64	0.704
383.85	0.706
384.06	0.710
384.27	0.707
384.47	0.704
384.68	0.705
384.89	0.711
385.09	0.710
385.30	0.709
385.51	0.709
385.71	0.712
385.92	0.712
386.13	0.710
386.33	0.711
386.54	0.712
386.75	0.711
386.95	0.706
387.16	0.701
387.37	0.705
387.58	0.705
387.78	0.702
387.99	0.700
388.20	0.702
388.40	0.699
388.61	0.694
388.82	0.697
389.02	0.700
389.23	0.700
389.44	0.698
389.64	0.698
389.85	0.709
390.06	0.709
390.26	0.708
390.47	0.707
390.68	0.711
390.88	0.709
391.09	0.705
391.30	0.704
391.50	0.704
391.71	0.703
391.92	0.700
392.12	0.692
392.33	0.693
392.53	0.693
392.74	0.692
392.95	0.691
393.15	0.694
393.36	0.696
393.57	0.693
393.77	0.696
393.98	0.698
394.19	0.697
394.39	0.696
394.60	0.697
394.81	0.699
395.01	0.698
395.22	0.695
395.43	0.696
395.63	0.701
395.84	0.702
396.04	0.697
396.25	0.700
396.46	0.702
396.66	0.700
396.87	0.697
397.08	0.694
397.28	0.696
397.49	0.697
397.69	0.692
397.90	0.688
398.11	0.690
398.31	0.690
398.52	0.685
398.73	0.686
398.93	0.685
399.14	0.684
399.34	0.683
399.55	0.684
399.76	0.684
399.96	0.685
400.17	0.683
400.37	0.680
400.58	0.687
400.79	0.689
400.99	0.687
401.20	0.692
401.41	0.695
401.61	0.695
401.82	0.700
402.02	0.700
402.23	0.701
402.44	0.700
402.64	0.700
402.85	0.694
403.05	0.693
403.26	0.692
403.47	0.685
403.67	0.685
403.88	0.685
404.08	0.680
404.29	0.678
404.50	0.678
404.70	0.679
404.91	0.678
405.11	0.675
405.32	0.675
405.52	0.675
405.73	0.675
405.94	0.673
406.14	0.675
406.35	0.677
406.55	0.675
406.76	0.672
406.97	0.673
407.17	0.676
407.38	0.674
407.58	0.673
407.79	0.675
407.99	0.678
408.20	0.678
408.41	0.674
408.61	0.673
408.82	0.675
409.02	0.675
409.23	0.673
409.43	0.671
409.64	0.674
409.84	0.673
410.05	0.669
410.26	0.668
410.46	0.668
410.67	0.667
410.87	0.668
411.08	0.669
411.28	0.671
411.49	0.672
411.69	0.669
411.90	0.670
412.11	0.672
412.31	0.673
412.52	0.671
412.72	0.673
412.93	0.674
413.13	0.673
413.34	0.669
413.54	0.670
413.75	0.672
413.95	0.672
414.16	0.668
414.37	0.671
414.57	0.671
414.78	0.674
414.98	0.671
415.19	0.672
415.39	0.670
415.60	0.672
415.80	0.671
416.01	0.670
416.21	0.672
416.42	0.672
416.62	0.667
416.83	0.667
417.03	0.667
417.24	0.668
417.44	0.665
417.65	0.665
417.86	0.665
418.06	0.663
418.27	0.661
418.47	0.662
418.68	0.664
418.88	0.665
419.09	0.663
419.29	0.664
419.50	0.665
419.70	0.664
419.91	0.662
420.11	0.660
420.32	0.663
420.52	0.663
420.73	0.662
420.93	0.663
421.14	0.664
421.34	0.663
421.55	0.660
421.75	0.659
421.96	0.661
422.16	0.662
422.37	0.660
422.57	0.657
422.78	0.659
422.98	0.655
423.19	0.653
423.39	0.652
423.60	0.656
423.80	0.658
424.01	0.656
424.21	0.658
424.42	0.660
424.62	0.660
424.83	0.659
425.03	0.660
425.23	0.663
425.44	0.663
425.64	0.662
425.85	0.661
426.05	0.662
426.26	0.663
426.46	0.659
426.67	0.659
426.87	0.664
427.08	0.664
427.28	0.662
427.49	0.663
427.69	0.665
427.90	0.664
428.10	0.661
428.31	0.660
428.51	0.662
428.71	0.661
428.92	0.662
429.12	0.659
429.33	0.660
429.53	0.664
429.74	0.669
429.94	0.668
430.15	0.668
430.35	0.668
430.56	0.665
430.76	0.664
430.96	0.666
431.17	0.664
431.37	0.661
431.58	0.659
431.78	0.656
431.99	0.649
432.19	0.651
432.40	0.653
432.60	0.654
432.80	0.657
433.01	0.655
433.21	0.655
433.42	0.658
433.62	0.658
433.83	0.657
434.03	0.660
434.23	0.663
434.44	0.662
434.64	0.659
434.85	0.664
435.05	0.665
435.26	0.665
435.46	0.663
435.66	0.663
435.87	0.663
436.07	0.663
436.28	0.659
436.48	0.657
436.69	0.657
436.89	0.658
437.09	0.652
437.30	0.651
437.50	0.652
437.71	0.663
437.91	0.662
438.11	0.663
438.32	0.667
438.52	0.667
438.73	0.666
438.93	0.664
439.13	0.665
439.34	0.669
439.54	0.667
439.75	0.667
439.95	0.658
440.15	0.662
440.36	0.660
440.56	0.658
440.77	0.659
440.97	0.659
441.17	0.658
441.38	0.658
441.58	0.656
441.79	0.655
441.99	0.654
442.19	0.653
442.40	0.651
442.60	0.652
442.81	0.649
443.01	0.650
443.21	0.651
443.42	0.650
443.62	0.648
443.82	0.648
444.03	0.650
444.23	0.650
444.44	0.650
444.64	0.648
444.84	0.650
445.05	0.650
445.25	0.647
445.45	0.648
445.66	0.651
445.86	0.650
446.06	0.652
446.27	0.652
446.47	0.655
446.68	0.653
446.88	0.652
447.08	0.652
447.29	0.654
447.49	0.655
447.69	0.655
447.90	0.653
448.10	0.658
448.30	0.655
448.51	0.656
448.71	0.653
448.91	0.656
449.12	0.655
449.32	0.657
449.52	0.655
449.73	0.659
449.93	0.658
450.14	0.658
450.34	0.658
450.54	0.660
450.75	0.658
450.95	0.657
451.15	0.656
451.36	0.659
451.56	0.656
451.76	0.655
451.97	0.652
452.17	0.652
452.37	0.651
452.58	0.647
452.78	0.647
452.98	0.650
453.19	0.650
453.39	0.650
453.59	0.649
453.79	0.650
454.00	0.651
454.20	0.649
454.40	0.651
454.61	0.653
454.81	0.653
455.01	0.651
455.22	0.652
455.42	0.654
455.62	0.652
455.83	0.652
456.03	0.654
456.23	0.656
456.44	0.657
456.64	0.656
456.84	0.656
457.04	0.657
457.25	0.656
457.45	0.653
457.65	0.652
457.86	0.653
458.06	0.651
458.26	0.647
458.47	0.646
458.67	0.647
458.87	0.647
459.07	0.645
459.28	0.647
459.48	0.650
459.68	0.650
459.89	0.649
