SpectraSuite Data File
++++++++++++++++++++++++++++++++++++
Date: Fri Jun 19 13:20:28 CEST 2015
User: introlabs
Dark Spectrum Present: Yes
Reference Spectrum Present: Yes
Number of Sampled Component Spectra: 1
Spectrometers: USB4H08886
Integration Time (usec): 745692 (USB4H08886)
Spectra Averaged: 5 (USB4H08886)
Boxcar Smoothing: 5 (USB4H08886)
Correct for Electrical Dark: Yes (USB4H08886)
Strobe/Lamp Enabled: No (USB4H08886)
Correct for Detector Non-linearity: Yes (USB4H08886)
Correct for Stray Light: Yes (USB4H08886)
Number of Pixels in Processed Spectrum: 3648
>>>>>Begin Processed Spectral Data<<<<<
178.14	-0.000
178.36	-0.000
178.57	-0.000
178.79	-0.000
179.01	-0.000
179.22	-0.000
179.44	-0.000
179.65	-0.000
179.87	-0.000
180.08	-0.000
180.30	-0.000
180.52	-0.000
180.73	-0.000
180.95	-0.000
181.16	-0.000
181.38	-0.000
181.59	-0.000
181.81	-0.000
182.03	-0.000
182.24	-0.000
182.46	-0.000
182.67	-0.000
182.89	-0.000
183.10	-0.000
183.32	-0.000
183.54	-0.000
183.75	-0.000
183.97	-0.000
184.18	-0.000
184.40	-0.000
184.61	-0.000
184.83	-0.000
185.04	-0.000
185.26	-0.000
185.48	-0.000
185.69	-0.000
185.91	-0.000
186.12	-0.000
186.34	-0.000
186.55	-0.000
186.77	-0.000
186.98	-0.000
187.20	-0.000
187.42	-0.000
187.63	-0.000
187.85	-0.000
188.06	-0.000
188.28	-0.000
188.49	-0.000
188.71	-0.000
188.92	-0.000
189.14	-0.000
189.36	-0.000
189.57	-0.000
189.79	-0.000
190.00	-0.000
190.22	-0.000
190.43	-0.000
190.65	-0.000
190.86	-0.000
191.08	-0.000
191.29	-0.000
191.51	-0.000
191.72	-0.000
191.94	-0.000
192.16	-0.000
192.37	-0.000
192.59	-0.000
192.80	-0.000
193.02	-0.000
193.23	-0.000
193.45	-0.000
193.66	-0.000
193.88	-0.000
194.09	-0.000
194.31	-0.000
194.52	-0.000
194.74	-0.000
194.95	-0.000
195.17	-0.000
195.38	-0.000
195.60	-0.000
195.81	-0.000
196.03	-0.000
196.25	-0.000
196.46	-0.000
196.68	-0.000
196.89	-0.000
197.11	-0.000
197.32	-0.000
197.54	-0.000
197.75	-0.000
197.97	-0.000
198.18	-0.000
198.40	-0.000
198.61	-0.000
198.83	-0.000
199.04	-0.000
199.26	-0.000
199.47	-0.000
199.69	-0.000
199.90	-0.000
200.12	-0.000
200.33	-0.000
200.55	-0.000
200.76	-0.000
200.98	-0.000
201.19	-0.000
201.41	-0.000
201.62	-0.000
201.84	-0.000
202.05	-0.000
202.27	-0.000
202.48	-0.000
202.70	-0.000
202.91	-0.000
203.13	-0.000
203.34	-0.000
203.56	-0.000
203.77	-0.000
203.99	-0.000
204.20	-0.000
204.42	-0.000
204.63	-0.000
204.85	-0.000
205.06	-0.000
205.28	-0.000
205.49	-0.000
205.71	-0.000
205.92	-0.000
206.14	-0.000
206.35	-0.000
206.56	-0.000
206.78	-0.000
206.99	-0.000
207.21	-0.000
207.42	-0.000
207.64	-0.000
207.85	-0.000
208.07	-0.000
208.28	-0.000
208.50	-0.000
208.71	-0.000
208.93	-0.000
209.14	-0.000
209.36	-0.000
209.57	-0.000
209.79	-0.000
210.00	-0.000
210.22	-0.000
210.43	-0.000
210.64	-0.000
210.86	-0.000
211.07	-0.000
211.29	-0.000
211.50	-0.000
211.72	-0.000
211.93	-0.000
212.15	-0.000
212.36	-0.000
212.58	-0.000
212.79	-0.000
213.01	-0.000
213.22	-0.000
213.43	-0.000
213.65	-0.000
213.86	-0.000
214.08	-0.000
214.29	-0.000
214.51	-0.000
214.72	-0.000
214.94	-0.000
215.15	-0.000
215.36	-0.000
215.58	-0.000
215.79	-0.000
216.01	-0.000
216.22	-0.000
216.44	-0.000
216.65	-0.000
216.87	-0.000
217.08	-0.000
217.29	-0.000
217.51	-0.000
217.72	-0.000
217.94	-0.000
218.15	-0.000
218.37	-0.000
218.58	-0.000
218.80	-0.000
219.01	-0.000
219.22	-0.000
219.44	-0.000
219.65	-0.000
219.87	-0.000
220.08	-0.000
220.30	-0.000
220.51	-0.000
220.72	-0.000
220.94	-0.000
221.15	-0.000
221.37	-0.000
221.58	-0.000
221.79	-0.000
222.01	-0.000
222.22	-0.000
222.44	-0.000
222.65	-0.000
222.87	-0.000
223.08	-0.000
223.29	-0.000
223.51	-0.000
223.72	-0.000
223.94	-0.000
224.15	-0.000
224.36	-0.000
224.58	-0.000
224.79	-0.000
225.01	-0.000
225.22	-0.000
225.44	-0.000
225.65	-0.000
225.86	-0.000
226.08	-0.000
226.29	-0.000
226.51	-0.000
226.72	-0.000
226.93	-0.000
227.15	-0.000
227.36	-0.000
227.58	-0.000
227.79	-0.000
228.00	-0.000
228.22	-0.000
228.43	-0.000
228.65	-0.000
228.86	-0.000
229.07	-0.000
229.29	-0.000
229.50	-0.000
229.72	-0.000
229.93	-0.000
230.14	-0.000
230.36	-0.000
230.57	-0.000
230.78	-0.000
231.00	-0.000
231.21	-0.000
231.43	-0.000
231.64	-0.000
231.85	-0.000
232.07	-0.000
232.28	-0.000
232.50	-0.000
232.71	-0.000
232.92	-0.000
233.14	-0.000
233.35	-0.000
233.56	-0.000
233.78	-0.000
233.99	-0.000
234.21	-0.000
234.42	-0.000
234.63	-0.000
234.85	-0.000
235.06	-0.000
235.27	-0.000
235.49	-0.000
235.70	-0.000
235.91	-0.000
236.13	-0.000
236.34	-0.000
236.56	-0.000
236.77	-0.000
236.98	-0.000
237.20	-0.000
237.41	-0.000
237.62	-0.000
237.84	-0.000
238.05	-0.000
238.26	-0.000
238.48	-0.000
238.69	-0.000
238.91	-0.000
239.12	-0.000
239.33	-0.000
239.55	-0.000
239.76	-0.000
239.97	-0.000
240.19	-0.000
240.40	-0.000
240.61	-0.000
240.83	-0.000
241.04	-0.000
241.25	-0.000
241.47	-0.000
241.68	-0.000
241.89	-0.000
242.11	-0.000
242.32	-0.000
242.53	-0.000
242.75	-0.000
242.96	-0.000
243.17	-0.000
243.39	-0.000
243.60	-0.000
243.81	-0.000
244.03	-0.000
244.24	-0.000
244.45	-0.000
244.67	-0.000
244.88	-0.000
245.09	-0.000
245.31	-0.000
245.52	-0.000
245.73	-0.000
245.95	-0.000
246.16	-0.000
246.37	-0.000
246.59	-0.000
246.80	-0.000
247.01	-0.000
247.23	-0.000
247.44	-0.000
247.65	-0.000
247.87	-0.000
248.08	-0.000
248.29	-0.000
248.51	-0.000
248.72	-0.000
248.93	-0.000
249.15	-0.000
249.36	-0.000
249.57	-0.000
249.78	-0.000
250.00	-0.000
250.21	-0.000
250.42	-0.000
250.64	-0.000
250.85	-0.000
251.06	-0.000
251.28	-0.000
251.49	-0.000
251.70	-0.000
251.92	-0.000
252.13	-0.000
252.34	-0.000
252.55	-0.000
252.77	-0.000
252.98	-0.000
253.19	-0.000
253.41	-0.000
253.62	-0.000
253.83	-0.000
254.05	-0.000
254.26	-0.000
254.47	-0.000
254.68	-0.000
254.90	-0.000
255.11	-0.000
255.32	-0.000
255.54	-0.000
255.75	-0.000
255.96	-0.000
256.17	-0.000
256.39	-0.000
256.60	-0.000
256.81	-0.000
257.03	-0.000
257.24	-0.000
257.45	-0.000
257.66	-0.000
257.88	-0.000
258.09	-0.000
258.30	-0.000
258.51	-0.000
258.73	-0.000
258.94	-0.000
259.15	-0.000
259.37	-0.000
259.58	-0.000
259.79	-0.000
260.00	-0.000
260.22	-0.000
260.43	-0.000
260.64	-0.000
260.85	-0.000
261.07	-0.000
261.28	-0.000
261.49	-0.000
261.71	-0.000
261.92	-0.000
262.13	-0.000
262.34	-0.000
262.56	-0.000
262.77	-0.000
262.98	-0.000
263.19	-0.000
263.41	-0.000
263.62	-0.000
263.83	-0.000
264.04	-0.000
264.26	-0.000
264.47	-0.000
264.68	-0.000
264.89	-0.000
265.11	-0.000
265.32	-0.000
265.53	-0.000
265.74	-0.000
265.96	-0.000
266.17	-0.000
266.38	-0.000
266.59	-0.000
266.81	-0.000
267.02	-0.000
267.23	-0.000
267.44	-0.000
267.65	-0.000
267.87	-0.000
268.08	-0.000
268.29	-0.000
268.50	-0.000
268.72	-0.000
268.93	-0.000
269.14	-0.000
269.35	-0.000
269.57	-0.000
269.78	-0.000
269.99	-0.000
270.20	-0.000
270.41	-0.000
270.63	-0.000
270.84	-0.000
271.05	-0.000
271.26	-0.000
271.48	-0.000
271.69	-0.000
271.90	-0.000
272.11	-0.000
272.32	-0.000
272.54	-0.000
272.75	-0.000
272.96	-0.000
273.17	-0.000
273.39	-0.000
273.60	-0.000
273.81	-0.000
274.02	-0.000
274.23	-0.000
274.45	-0.000
274.66	-0.000
274.87	-0.000
275.08	-0.000
275.29	-0.000
275.51	-0.000
275.72	-0.000
275.93	-0.000
276.14	-0.000
276.35	-0.000
276.57	-0.000
276.78	-0.000
276.99	-0.000
277.20	-0.000
277.41	-0.000
277.63	-0.000
277.84	-0.000
278.05	-0.000
278.26	-0.000
278.47	-0.000
278.69	-0.000
278.90	-0.000
279.11	-0.000
279.32	-0.000
279.53	-0.000
279.74	-0.000
279.96	-0.000
280.17	-0.000
280.38	-0.000
280.59	-0.000
280.80	-0.000
281.02	-0.000
281.23	-0.000
281.44	-0.000
281.65	-0.000
281.86	-0.000
282.07	-0.000
282.29	-0.000
282.50	-0.000
282.71	-0.000
282.92	-0.000
283.13	-0.000
283.35	-0.000
283.56	-0.000
283.77	-0.000
283.98	-0.000
284.19	-0.000
284.40	-0.000
284.62	-0.000
284.83	-0.000
285.04	-0.000
285.25	-0.000
285.46	-0.000
285.67	-0.000
285.88	-0.000
286.10	-0.000
286.31	-0.000
286.52	-0.000
286.73	-0.000
286.94	-0.000
287.15	-0.000
287.37	-0.000
287.58	-0.000
287.79	-0.000
288.00	-0.000
288.21	-0.000
288.42	-0.000
288.63	-0.000
288.85	-0.000
289.06	-0.000
289.27	-0.000
289.48	-0.000
289.69	-0.000
289.90	-0.000
290.11	-0.000
290.33	-0.000
290.54	-0.000
290.75	-0.000
290.96	-0.000
291.17	-0.000
291.38	-0.000
291.59	-0.000
291.81	-0.000
292.02	-0.000
292.23	-0.000
292.44	-0.000
292.65	-0.000
292.86	-0.000
293.07	-0.000
293.28	-0.000
293.50	-0.000
293.71	-0.000
293.92	-0.000
294.13	-0.000
294.34	-0.000
294.55	-0.000
294.76	-0.000
294.97	-0.000
295.19	-0.000
295.40	-0.000
295.61	-0.000
295.82	-0.000
296.03	-0.000
296.24	-0.000
296.45	-0.000
296.66	-0.000
296.87	-0.000
297.09	-0.000
297.30	-0.000
297.51	3.477
297.72	2.611
297.93	-0.000
298.14	-0.000
298.35	2.572
298.56	2.392
298.77	-0.000
298.99	-0.000
299.20	2.712
299.41	2.503
299.62	2.291
299.83	2.222
300.04	2.003
300.25	1.956
300.46	2.101
300.67	2.020
300.88	1.878
301.10	1.869
301.31	2.042
301.52	1.894
301.73	1.770
301.94	1.764
302.15	1.798
302.36	1.712
302.57	1.604
302.78	1.609
302.99	1.674
303.20	1.704
303.41	1.561
303.63	1.535
303.84	1.545
304.05	1.544
304.26	1.456
304.47	1.461
304.68	1.470
304.89	1.453
305.10	1.397
305.31	1.385
305.52	1.444
305.73	1.428
305.94	1.372
306.15	1.364
306.37	1.394
306.58	1.400
306.79	1.359
307.00	1.383
307.21	1.440
307.42	1.426
307.63	1.374
307.84	1.332
308.05	1.384
308.26	1.386
308.47	1.352
308.68	1.342
308.89	1.345
309.10	1.345
309.31	1.296
309.52	1.284
309.73	1.308
309.95	1.302
310.16	1.263
310.37	1.247
310.58	1.265
310.79	1.264
311.00	1.259
311.21	1.261
311.42	1.262
311.63	1.255
311.84	1.231
312.05	1.227
312.26	1.253
312.47	1.269
312.68	1.237
312.89	1.217
313.10	1.226
313.31	1.193
313.52	1.192
313.73	1.194
313.94	1.198
314.15	1.179
314.36	1.152
314.57	1.144
314.78	1.128
314.99	1.123
315.21	1.112
315.42	1.117
315.63	1.132
315.84	1.107
316.05	1.090
316.26	1.099
316.47	1.119
316.68	1.115
316.89	1.092
317.10	1.116
317.31	1.124
317.52	1.123
317.73	1.098
317.94	1.100
318.15	1.148
318.36	1.146
318.57	1.123
318.78	1.111
318.99	1.152
319.20	1.150
319.41	1.112
319.62	1.112
319.83	1.127
320.04	1.122
320.25	1.103
320.46	1.068
320.67	1.071
320.88	1.066
321.09	1.046
321.30	1.029
321.51	1.046
321.72	1.043
321.93	1.025
322.14	1.016
322.35	1.045
322.56	1.047
322.77	1.031
322.98	1.042
323.19	1.050
323.40	1.059
323.61	1.035
323.82	1.029
324.03	1.034
324.24	1.031
324.45	1.018
324.66	0.999
324.87	0.996
325.08	0.995
325.29	0.976
325.50	0.968
325.71	0.974
325.92	0.982
326.13	0.967
326.34	0.966
326.55	0.977
326.76	0.976
326.97	0.964
327.18	0.959
327.39	0.987
327.60	0.987
327.80	0.988
328.01	0.986
328.22	0.987
328.43	0.992
328.64	0.980
328.85	0.983
329.06	0.985
329.27	0.983
329.48	0.977
329.69	0.957
329.90	0.968
330.11	0.960
330.32	0.953
330.53	0.945
330.74	0.945
330.95	0.943
331.16	0.927
331.37	0.935
331.58	0.937
331.79	0.935
332.00	0.926
332.21	0.919
332.42	0.923
332.63	0.915
332.83	0.909
333.04	0.911
333.25	0.924
333.46	0.923
333.67	0.908
333.88	0.909
334.09	0.920
334.30	0.915
334.51	0.905
334.72	0.900
334.93	0.902
335.14	0.901
335.35	0.892
335.56	0.887
335.77	0.896
335.98	0.893
336.18	0.887
336.39	0.880
336.60	0.886
336.81	0.885
337.02	0.885
337.23	0.889
337.44	0.892
337.65	0.894
337.86	0.883
338.07	0.877
338.28	0.884
338.49	0.881
338.70	0.872
338.91	0.879
339.11	0.885
339.32	0.881
339.53	0.868
339.74	0.867
339.95	0.864
340.16	0.863
340.37	0.855
340.58	0.852
340.79	0.857
341.00	0.857
341.21	0.845
341.41	0.847
341.62	0.849
341.83	0.851
342.04	0.844
342.25	0.856
342.46	0.861
342.67	0.860
342.88	0.852
343.09	0.851
343.30	0.859
343.50	0.863
343.71	0.852
343.92	0.850
344.13	0.855
344.34	0.855
344.55	0.838
344.76	0.836
344.97	0.843
345.18	0.842
345.38	0.840
345.59	0.834
345.80	0.833
346.01	0.832
346.22	0.826
346.43	0.821
346.64	0.829
346.85	0.829
347.06	0.822
347.26	0.821
347.47	0.824
347.68	0.818
347.89	0.815
348.10	0.810
348.31	0.818
348.52	0.816
348.73	0.814
348.93	0.810
349.14	0.812
349.35	0.812
349.56	0.806
349.77	0.802
349.98	0.809
350.19	0.804
350.39	0.800
350.60	0.795
350.81	0.811
351.02	0.810
351.23	0.805
351.44	0.807
351.65	0.810
351.86	0.807
352.06	0.805
352.27	0.805
352.48	0.808
352.69	0.806
352.90	0.801
353.11	0.787
353.31	0.795
353.52	0.792
353.73	0.783
353.94	0.785
354.15	0.792
354.36	0.792
354.57	0.782
354.77	0.784
354.98	0.785
355.19	0.785
355.40	0.784
355.61	0.789
355.82	0.794
356.02	0.793
356.23	0.786
356.44	0.787
356.65	0.791
356.86	0.792
357.07	0.785
357.27	0.789
357.48	0.792
357.69	0.787
357.90	0.771
358.11	0.767
358.32	0.771
358.52	0.775
358.73	0.765
358.94	0.767
359.15	0.772
359.36	0.772
359.56	0.767
359.77	0.764
359.98	0.771
360.19	0.771
360.40	0.767
360.61	0.767
360.81	0.766
361.02	0.766
361.23	0.758
361.44	0.756
361.65	0.757
361.85	0.756
362.06	0.754
362.27	0.756
362.48	0.756
362.69	0.758
362.89	0.752
363.10	0.753
363.31	0.759
363.52	0.761
363.73	0.756
363.93	0.756
364.14	0.758
364.35	0.760
364.56	0.750
364.77	0.753
364.97	0.756
365.18	0.756
365.39	0.750
365.60	0.746
365.81	0.748
366.01	0.748
366.22	0.744
366.43	0.743
366.64	0.745
366.84	0.751
367.05	0.747
367.26	0.746
367.47	0.748
367.68	0.748
367.88	0.746
368.09	0.743
368.30	0.745
368.51	0.745
368.71	0.744
368.92	0.748
369.13	0.747
369.34	0.746
369.55	0.745
369.75	0.745
369.96	0.752
370.17	0.751
370.38	0.748
370.58	0.748
370.79	0.754
371.00	0.752
371.21	0.743
371.41	0.748
371.62	0.753
371.83	0.747
372.04	0.744
372.24	0.738
372.45	0.738
372.66	0.738
372.87	0.735
373.07	0.732
373.28	0.732
373.49	0.735
373.70	0.725
373.90	0.725
374.11	0.735
374.32	0.736
374.53	0.733
374.73	0.734
374.94	0.737
375.15	0.737
375.36	0.735
375.56	0.744
375.77	0.745
375.98	0.745
376.19	0.742
376.39	0.735
376.60	0.738
376.81	0.739
377.02	0.736
377.22	0.734
377.43	0.734
377.64	0.734
377.84	0.725
378.05	0.729
378.26	0.736
378.47	0.735
378.67	0.731
378.88	0.728
379.09	0.730
379.30	0.730
379.50	0.728
379.71	0.730
379.92	0.733
380.12	0.732
380.33	0.723
380.54	0.719
380.75	0.726
380.95	0.726
381.16	0.724
381.37	0.724
381.57	0.726
381.78	0.726
381.99	0.725
382.20	0.724
382.40	0.728
382.61	0.728
382.82	0.725
383.02	0.717
383.23	0.721
383.44	0.721
383.64	0.718
383.85	0.721
384.06	0.725
384.27	0.722
384.47	0.719
384.68	0.719
384.89	0.725
385.09	0.724
385.30	0.724
385.51	0.722
385.71	0.726
385.92	0.727
386.13	0.724
386.33	0.726
386.54	0.728
386.75	0.727
386.95	0.723
387.16	0.718
387.37	0.721
387.58	0.721
387.78	0.718
387.99	0.715
388.20	0.717
388.40	0.714
388.61	0.710
388.82	0.712
389.02	0.714
389.23	0.714
389.44	0.712
389.64	0.713
389.85	0.724
390.06	0.724
390.26	0.725
390.47	0.724
390.68	0.727
390.88	0.725
391.09	0.721
391.30	0.720
391.50	0.719
391.71	0.719
391.92	0.717
392.12	0.709
392.33	0.709
392.53	0.709
392.74	0.709
392.95	0.709
393.15	0.712
393.36	0.713
393.57	0.711
393.77	0.714
393.98	0.716
394.19	0.716
394.39	0.714
394.60	0.716
394.81	0.718
395.01	0.715
395.22	0.713
395.43	0.714
395.63	0.719
395.84	0.720
396.04	0.716
396.25	0.717
396.46	0.719
396.66	0.717
396.87	0.714
397.08	0.711
397.28	0.712
397.49	0.713
397.69	0.709
397.90	0.704
398.11	0.704
398.31	0.705
398.52	0.701
398.73	0.702
398.93	0.701
399.14	0.701
399.34	0.700
399.55	0.701
399.76	0.701
399.96	0.702
400.17	0.701
400.37	0.700
400.58	0.707
400.79	0.708
400.99	0.705
401.20	0.711
401.41	0.713
401.61	0.714
401.82	0.718
402.02	0.718
402.23	0.719
402.44	0.719
402.64	0.718
402.85	0.712
403.05	0.711
403.26	0.710
403.47	0.704
403.67	0.702
403.88	0.703
404.08	0.697
404.29	0.695
404.50	0.694
404.70	0.695
404.91	0.694
405.11	0.691
405.32	0.691
405.52	0.692
405.73	0.692
405.94	0.690
406.14	0.693
406.35	0.695
406.55	0.694
406.76	0.692
406.97	0.692
407.17	0.695
407.38	0.695
407.58	0.692
407.79	0.695
407.99	0.697
408.20	0.698
408.41	0.693
408.61	0.692
408.82	0.693
409.02	0.693
409.23	0.691
409.43	0.690
409.64	0.692
409.84	0.692
410.05	0.688
410.26	0.687
410.46	0.686
410.67	0.686
410.87	0.687
411.08	0.689
411.28	0.690
411.49	0.692
411.69	0.690
411.90	0.691
412.11	0.692
412.31	0.693
412.52	0.691
412.72	0.693
412.93	0.693
413.13	0.692
413.34	0.688
413.54	0.690
413.75	0.691
413.95	0.691
414.16	0.687
414.37	0.689
414.57	0.690
414.78	0.693
414.98	0.691
415.19	0.692
415.39	0.690
415.60	0.692
415.80	0.691
416.01	0.689
416.21	0.691
416.42	0.691
416.62	0.686
416.83	0.686
417.03	0.685
417.24	0.685
417.44	0.682
417.65	0.682
417.86	0.682
418.06	0.681
418.27	0.679
418.47	0.680
418.68	0.681
418.88	0.682
419.09	0.680
419.29	0.681
419.50	0.681
419.70	0.681
419.91	0.680
420.11	0.678
420.32	0.681
420.52	0.680
420.73	0.679
420.93	0.680
421.14	0.681
421.34	0.680
421.55	0.677
421.75	0.677
421.96	0.678
422.16	0.678
422.37	0.677
422.57	0.674
422.78	0.676
422.98	0.672
423.19	0.670
423.39	0.668
423.60	0.672
423.80	0.673
424.01	0.671
424.21	0.674
424.42	0.674
424.62	0.674
424.83	0.673
425.03	0.673
425.23	0.675
425.44	0.676
425.64	0.677
425.85	0.676
426.05	0.677
426.26	0.677
426.46	0.674
426.67	0.673
426.87	0.678
427.08	0.679
427.28	0.677
427.49	0.678
427.69	0.679
427.90	0.677
428.10	0.674
428.31	0.674
428.51	0.675
428.71	0.675
428.92	0.676
429.12	0.673
429.33	0.674
429.53	0.678
429.74	0.682
429.94	0.682
430.15	0.682
430.35	0.683
430.56	0.680
430.76	0.679
430.96	0.680
431.17	0.677
431.37	0.674
431.58	0.672
431.78	0.669
431.99	0.662
432.19	0.664
432.40	0.666
432.60	0.666
432.80	0.669
433.01	0.667
433.21	0.668
433.42	0.671
433.62	0.671
433.83	0.671
434.03	0.674
434.23	0.677
434.44	0.677
434.64	0.675
434.85	0.680
435.05	0.680
435.26	0.681
435.46	0.679
435.66	0.679
435.87	0.679
436.07	0.679
436.28	0.675
436.48	0.672
436.69	0.671
436.89	0.671
437.09	0.665
437.30	0.664
437.50	0.665
437.71	0.676
437.91	0.675
438.11	0.676
438.32	0.680
438.52	0.681
438.73	0.680
438.93	0.679
439.13	0.678
439.34	0.682
439.54	0.680
439.75	0.680
439.95	0.670
440.15	0.674
440.36	0.672
440.56	0.670
440.77	0.671
440.97	0.671
441.17	0.670
441.38	0.671
441.58	0.668
441.79	0.667
441.99	0.666
442.19	0.665
442.40	0.662
442.60	0.662
442.81	0.659
443.01	0.660
443.21	0.660
443.42	0.659
443.62	0.658
443.82	0.658
444.03	0.660
444.23	0.660
444.44	0.660
444.64	0.660
444.84	0.662
445.05	0.662
445.25	0.660
445.45	0.660
445.66	0.663
445.86	0.663
446.06	0.663
446.27	0.663
446.47	0.667
446.68	0.665
446.88	0.663
447.08	0.662
447.29	0.664
447.49	0.664
447.69	0.664
447.90	0.663
448.10	0.666
448.30	0.663
448.51	0.665
448.71	0.662
448.91	0.665
449.12	0.664
449.32	0.665
449.52	0.665
449.73	0.668
449.93	0.667
450.14	0.667
450.34	0.667
450.54	0.670
450.75	0.666
450.95	0.665
451.15	0.664
451.36	0.667
451.56	0.664
451.76	0.663
451.97	0.660
452.17	0.660
452.37	0.659
452.58	0.656
452.78	0.656
452.98	0.658
453.19	0.657
453.39	0.658
453.59	0.657
453.79	0.658
454.00	0.659
454.20	0.657
454.40	0.659
454.61	0.661
454.81	0.661
455.01	0.660
455.22	0.661
455.42	0.663
455.62	0.661
455.83	0.661
456.03	0.664
456.23	0.665
456.44	0.665
456.64	0.663
456.84	0.664
457.04	0.664
457.25	0.663
457.45	0.660
457.65	0.659
457.86	0.659
458.06	0.658
458.26	0.654
458.47	0.653
458.67	0.654
458.87	0.655
459.07	0.652
459.28	0.655
459.48	0.657
459.68	0.656
