SpectraSuite Data File
++++++++++++++++++++++++++++++++++++
Date: Fri Jun 19 13:42:12 CEST 2015
User: introlabs
Dark Spectrum Present: Yes
Reference Spectrum Present: Yes
Number of Sampled Component Spectra: 1
Spectrometers: USB4H08886
Integration Time (usec): 745692 (USB4H08886)
Spectra Averaged: 5 (USB4H08886)
Boxcar Smoothing: 5 (USB4H08886)
Correct for Electrical Dark: Yes (USB4H08886)
Strobe/Lamp Enabled: No (USB4H08886)
Correct for Detector Non-linearity: Yes (USB4H08886)
Correct for Stray Light: Yes (USB4H08886)
Number of Pixels in Processed Spectrum: 3648
>>>>>Begin Processed Spectral Data<<<<<
178.14	-0.000
178.36	-0.000
178.57	-0.000
178.79	-0.000
179.01	-0.000
179.22	-0.000
179.44	-0.000
179.65	-0.000
179.87	-0.000
180.08	-0.000
180.30	-0.000
180.52	-0.000
180.73	-0.000
180.95	-0.000
181.16	-0.000
181.38	-0.000
181.59	-0.000
181.81	-0.000
182.03	-0.000
182.24	-0.000
182.46	-0.000
182.67	-0.000
182.89	-0.000
183.10	-0.000
183.32	-0.000
183.54	-0.000
183.75	-0.000
183.97	-0.000
184.18	-0.000
184.40	-0.000
184.61	-0.000
184.83	-0.000
185.04	-0.000
185.26	-0.000
185.48	-0.000
185.69	-0.000
185.91	-0.000
186.12	-0.000
186.34	-0.000
186.55	-0.000
186.77	-0.000
186.98	-0.000
187.20	-0.000
187.42	-0.000
187.63	-0.000
187.85	-0.000
188.06	-0.000
188.28	-0.000
188.49	-0.000
188.71	-0.000
188.92	-0.000
189.14	-0.000
189.36	-0.000
189.57	-0.000
189.79	-0.000
190.00	-0.000
190.22	-0.000
190.43	-0.000
190.65	-0.000
190.86	-0.000
191.08	-0.000
191.29	-0.000
191.51	-0.000
191.72	-0.000
191.94	-0.000
192.16	-0.000
192.37	-0.000
192.59	-0.000
192.80	-0.000
193.02	-0.000
193.23	-0.000
193.45	-0.000
193.66	-0.000
193.88	-0.000
194.09	-0.000
194.31	-0.000
194.52	-0.000
194.74	-0.000
194.95	-0.000
195.17	-0.000
195.38	-0.000
195.60	-0.000
195.81	-0.000
196.03	-0.000
196.25	-0.000
196.46	-0.000
196.68	-0.000
196.89	-0.000
197.11	-0.000
197.32	-0.000
197.54	-0.000
197.75	-0.000
197.97	-0.000
198.18	-0.000
198.40	-0.000
198.61	-0.000
198.83	-0.000
199.04	-0.000
199.26	-0.000
199.47	-0.000
199.69	-0.000
199.90	-0.000
200.12	-0.000
200.33	-0.000
200.55	-0.000
200.76	-0.000
200.98	-0.000
201.19	-0.000
201.41	-0.000
201.62	-0.000
201.84	-0.000
202.05	-0.000
202.27	-0.000
202.48	-0.000
202.70	-0.000
202.91	-0.000
203.13	-0.000
203.34	-0.000
203.56	-0.000
203.77	-0.000
203.99	-0.000
204.20	-0.000
204.42	-0.000
204.63	-0.000
204.85	-0.000
205.06	-0.000
205.28	-0.000
205.49	-0.000
205.71	-0.000
205.92	-0.000
206.14	-0.000
206.35	-0.000
206.56	-0.000
206.78	-0.000
206.99	-0.000
207.21	-0.000
207.42	-0.000
207.64	-0.000
207.85	-0.000
208.07	-0.000
208.28	-0.000
208.50	-0.000
208.71	-0.000
208.93	-0.000
209.14	-0.000
209.36	-0.000
209.57	-0.000
209.79	-0.000
210.00	-0.000
210.22	-0.000
210.43	-0.000
210.64	-0.000
210.86	-0.000
211.07	-0.000
211.29	-0.000
211.50	-0.000
211.72	-0.000
211.93	-0.000
212.15	-0.000
212.36	-0.000
212.58	-0.000
212.79	-0.000
213.01	-0.000
213.22	-0.000
213.43	-0.000
213.65	-0.000
213.86	-0.000
214.08	-0.000
214.29	-0.000
214.51	-0.000
214.72	-0.000
214.94	-0.000
215.15	-0.000
215.36	-0.000
215.58	-0.000
215.79	-0.000
216.01	-0.000
216.22	-0.000
216.44	-0.000
216.65	-0.000
216.87	-0.000
217.08	-0.000
217.29	-0.000
217.51	-0.000
217.72	-0.000
217.94	-0.000
218.15	-0.000
218.37	-0.000
218.58	-0.000
218.80	-0.000
219.01	-0.000
219.22	-0.000
219.44	-0.000
219.65	-0.000
219.87	-0.000
220.08	-0.000
220.30	-0.000
220.51	-0.000
220.72	-0.000
220.94	-0.000
221.15	-0.000
221.37	-0.000
221.58	-0.000
221.79	-0.000
222.01	-0.000
222.22	-0.000
222.44	-0.000
222.65	-0.000
222.87	-0.000
223.08	-0.000
223.29	-0.000
223.51	-0.000
223.72	-0.000
223.94	-0.000
224.15	-0.000
224.36	-0.000
224.58	-0.000
224.79	-0.000
225.01	-0.000
225.22	-0.000
225.44	-0.000
225.65	-0.000
225.86	-0.000
226.08	-0.000
226.29	-0.000
226.51	-0.000
226.72	-0.000
226.93	-0.000
227.15	-0.000
227.36	-0.000
227.58	-0.000
227.79	-0.000
228.00	-0.000
228.22	-0.000
228.43	-0.000
228.65	-0.000
228.86	-0.000
229.07	-0.000
229.29	-0.000
229.50	-0.000
229.72	-0.000
229.93	-0.000
230.14	-0.000
230.36	-0.000
230.57	-0.000
230.78	-0.000
231.00	-0.000
231.21	-0.000
231.43	-0.000
231.64	-0.000
231.85	-0.000
232.07	-0.000
232.28	-0.000
232.50	-0.000
232.71	-0.000
232.92	-0.000
233.14	-0.000
233.35	-0.000
233.56	-0.000
233.78	-0.000
233.99	-0.000
234.21	-0.000
234.42	-0.000
234.63	-0.000
234.85	-0.000
235.06	-0.000
235.27	-0.000
235.49	-0.000
235.70	-0.000
235.91	-0.000
236.13	-0.000
236.34	-0.000
236.56	-0.000
236.77	-0.000
236.98	-0.000
237.20	-0.000
237.41	-0.000
237.62	-0.000
237.84	-0.000
238.05	-0.000
238.26	-0.000
238.48	-0.000
238.69	-0.000
238.91	-0.000
239.12	-0.000
239.33	-0.000
239.55	-0.000
239.76	-0.000
239.97	-0.000
240.19	-0.000
240.40	-0.000
240.61	-0.000
240.83	-0.000
241.04	-0.000
241.25	-0.000
241.47	-0.000
241.68	-0.000
241.89	-0.000
242.11	-0.000
242.32	-0.000
242.53	-0.000
242.75	-0.000
242.96	-0.000
243.17	-0.000
243.39	-0.000
243.60	-0.000
243.81	-0.000
244.03	-0.000
244.24	-0.000
244.45	-0.000
244.67	-0.000
244.88	-0.000
245.09	-0.000
245.31	-0.000
245.52	-0.000
245.73	-0.000
245.95	-0.000
246.16	-0.000
246.37	-0.000
246.59	-0.000
246.80	-0.000
247.01	-0.000
247.23	-0.000
247.44	-0.000
247.65	-0.000
247.87	-0.000
248.08	-0.000
248.29	-0.000
248.51	-0.000
248.72	-0.000
248.93	-0.000
249.15	-0.000
249.36	-0.000
249.57	-0.000
249.78	-0.000
250.00	-0.000
250.21	-0.000
250.42	-0.000
250.64	-0.000
250.85	-0.000
251.06	-0.000
251.28	-0.000
251.49	-0.000
251.70	-0.000
251.92	-0.000
252.13	-0.000
252.34	-0.000
252.55	-0.000
252.77	-0.000
252.98	-0.000
253.19	-0.000
253.41	-0.000
253.62	-0.000
253.83	-0.000
254.05	-0.000
254.26	-0.000
254.47	-0.000
254.68	-0.000
254.90	-0.000
255.11	-0.000
255.32	-0.000
255.54	-0.000
255.75	-0.000
255.96	-0.000
256.17	-0.000
256.39	-0.000
256.60	-0.000
256.81	-0.000
257.03	-0.000
257.24	-0.000
257.45	-0.000
257.66	-0.000
257.88	-0.000
258.09	-0.000
258.30	-0.000
258.51	-0.000
258.73	-0.000
258.94	-0.000
259.15	-0.000
259.37	-0.000
259.58	-0.000
259.79	-0.000
260.00	-0.000
260.22	-0.000
260.43	-0.000
260.64	-0.000
260.85	-0.000
261.07	-0.000
261.28	-0.000
261.49	-0.000
261.71	-0.000
261.92	-0.000
262.13	-0.000
262.34	-0.000
262.56	-0.000
262.77	-0.000
262.98	-0.000
263.19	-0.000
263.41	-0.000
263.62	-0.000
263.83	-0.000
264.04	-0.000
264.26	-0.000
264.47	-0.000
264.68	-0.000
264.89	-0.000
265.11	-0.000
265.32	-0.000
265.53	-0.000
265.74	-0.000
265.96	-0.000
266.17	-0.000
266.38	-0.000
266.59	-0.000
266.81	-0.000
267.02	-0.000
267.23	-0.000
267.44	-0.000
267.65	-0.000
267.87	-0.000
268.08	-0.000
268.29	-0.000
268.50	-0.000
268.72	-0.000
268.93	-0.000
269.14	-0.000
269.35	-0.000
269.57	-0.000
269.78	-0.000
269.99	-0.000
270.20	-0.000
270.41	-0.000
270.63	-0.000
270.84	-0.000
271.05	-0.000
271.26	-0.000
271.48	-0.000
271.69	-0.000
271.90	-0.000
272.11	-0.000
272.32	-0.000
272.54	-0.000
272.75	-0.000
272.96	-0.000
273.17	-0.000
273.39	-0.000
273.60	-0.000
273.81	-0.000
274.02	-0.000
274.23	-0.000
274.45	-0.000
274.66	-0.000
274.87	-0.000
275.08	-0.000
275.29	-0.000
275.51	-0.000
275.72	-0.000
275.93	-0.000
276.14	-0.000
276.35	-0.000
276.57	-0.000
276.78	-0.000
276.99	-0.000
277.20	-0.000
277.41	-0.000
277.63	-0.000
277.84	-0.000
278.05	-0.000
278.26	-0.000
278.47	-0.000
278.69	-0.000
278.90	-0.000
279.11	-0.000
279.32	-0.000
279.53	-0.000
279.74	-0.000
279.96	-0.000
280.17	-0.000
280.38	-0.000
280.59	-0.000
280.80	-0.000
281.02	-0.000
281.23	-0.000
281.44	-0.000
281.65	-0.000
281.86	-0.000
282.07	-0.000
282.29	-0.000
282.50	-0.000
282.71	-0.000
282.92	-0.000
283.13	-0.000
283.35	-0.000
283.56	-0.000
283.77	-0.000
283.98	-0.000
284.19	-0.000
284.40	-0.000
284.62	-0.000
284.83	-0.000
285.04	-0.000
285.25	-0.000
285.46	-0.000
285.67	-0.000
285.88	-0.000
286.10	-0.000
286.31	-0.000
286.52	-0.000
286.73	-0.000
286.94	-0.000
287.15	-0.000
287.37	-0.000
287.58	-0.000
287.79	-0.000
288.00	-0.000
288.21	-0.000
288.42	-0.000
288.63	-0.000
288.85	-0.000
289.06	-0.000
289.27	-0.000
289.48	-0.000
289.69	-0.000
289.90	-0.000
290.11	-0.000
290.33	-0.000
290.54	-0.000
290.75	-0.000
290.96	-0.000
291.17	-0.000
291.38	-0.000
291.59	-0.000
291.81	-0.000
292.02	-0.000
292.23	-0.000
292.44	-0.000
292.65	-0.000
292.86	-0.000
293.07	-0.000
293.28	-0.000
293.50	-0.000
293.71	-0.000
293.92	-0.000
294.13	-0.000
294.34	-0.000
294.55	-0.000
294.76	-0.000
294.97	-0.000
295.19	-0.000
295.40	-0.000
295.61	-0.000
295.82	-0.000
296.03	-0.000
296.24	-0.000
296.45	-0.000
296.66	2.855
296.87	3.961
297.09	-0.000
297.30	-0.000
297.51	2.345
297.72	2.213
297.93	2.808
298.14	2.492
298.35	2.232
298.56	2.142
298.77	2.741
298.99	2.570
299.20	2.323
299.41	2.212
299.62	2.061
299.83	2.028
300.04	1.865
300.25	1.833
300.46	1.930
300.67	1.872
300.88	1.756
301.10	1.755
301.31	1.875
301.52	1.766
301.73	1.682
301.94	1.685
302.15	1.723
302.36	1.656
302.57	1.566
302.78	1.577
302.99	1.646
303.20	1.692
303.41	1.553
303.63	1.521
303.84	1.536
304.05	1.524
304.26	1.446
304.47	1.452
304.68	1.453
304.89	1.440
305.10	1.385
305.31	1.367
305.52	1.416
305.73	1.407
305.94	1.360
306.15	1.349
306.37	1.380
306.58	1.384
306.79	1.343
307.00	1.367
307.21	1.410
307.42	1.400
307.63	1.351
307.84	1.313
308.05	1.355
308.26	1.354
308.47	1.326
308.68	1.321
308.89	1.317
309.10	1.315
309.31	1.272
309.52	1.262
309.73	1.281
309.95	1.274
310.16	1.239
310.37	1.227
310.58	1.249
310.79	1.244
311.00	1.235
311.21	1.243
311.42	1.245
311.63	1.239
311.84	1.217
312.05	1.211
312.26	1.239
312.47	1.252
312.68	1.223
312.89	1.201
313.10	1.212
313.31	1.185
313.52	1.184
313.73	1.186
313.94	1.189
314.15	1.169
314.36	1.145
314.57	1.136
314.78	1.121
314.99	1.115
315.21	1.104
315.42	1.108
315.63	1.121
315.84	1.095
316.05	1.078
316.26	1.086
316.47	1.107
316.68	1.103
316.89	1.081
317.10	1.103
317.31	1.110
317.52	1.109
317.73	1.086
317.94	1.086
318.15	1.132
318.36	1.133
318.57	1.114
318.78	1.101
318.99	1.139
319.20	1.138
319.41	1.100
319.62	1.099
319.83	1.114
320.04	1.109
320.25	1.092
320.46	1.058
320.67	1.058
320.88	1.054
321.09	1.038
321.30	1.023
321.51	1.037
321.72	1.035
321.93	1.019
322.14	1.011
322.35	1.040
322.56	1.043
322.77	1.029
322.98	1.041
323.19	1.049
323.40	1.054
323.61	1.031
323.82	1.026
324.03	1.031
324.24	1.030
324.45	1.017
324.66	0.995
324.87	0.992
325.08	0.992
325.29	0.971
325.50	0.963
325.71	0.970
325.92	0.978
326.13	0.964
326.34	0.963
326.55	0.971
326.76	0.968
326.97	0.958
327.18	0.951
327.39	0.978
327.60	0.978
327.80	0.978
328.01	0.976
328.22	0.977
328.43	0.980
328.64	0.968
328.85	0.970
329.06	0.972
329.27	0.971
329.48	0.966
329.69	0.946
329.90	0.956
330.11	0.948
330.32	0.942
330.53	0.933
330.74	0.934
330.95	0.931
331.16	0.918
331.37	0.926
331.58	0.925
331.79	0.924
332.00	0.916
332.21	0.911
332.42	0.916
332.63	0.908
332.83	0.904
333.04	0.907
333.25	0.920
333.46	0.918
333.67	0.903
333.88	0.907
334.09	0.918
334.30	0.915
334.51	0.905
334.72	0.899
334.93	0.902
335.14	0.903
335.35	0.894
335.56	0.890
335.77	0.899
335.98	0.897
336.18	0.889
336.39	0.881
336.60	0.885
336.81	0.884
337.02	0.883
337.23	0.886
337.44	0.888
337.65	0.891
337.86	0.880
338.07	0.875
338.28	0.881
338.49	0.880
338.70	0.874
338.91	0.880
339.11	0.888
339.32	0.885
339.53	0.873
339.74	0.870
339.95	0.865
340.16	0.864
340.37	0.855
340.58	0.854
340.79	0.857
341.00	0.856
341.21	0.845
341.41	0.845
341.62	0.846
341.83	0.847
342.04	0.842
342.25	0.852
342.46	0.857
342.67	0.856
342.88	0.849
343.09	0.849
343.30	0.857
343.50	0.860
343.71	0.850
343.92	0.849
344.13	0.856
344.34	0.855
344.55	0.838
344.76	0.837
344.97	0.841
345.18	0.840
345.38	0.837
345.59	0.830
345.80	0.830
346.01	0.827
346.22	0.822
346.43	0.814
346.64	0.823
346.85	0.823
347.06	0.815
347.26	0.815
347.47	0.819
347.68	0.814
347.89	0.809
348.10	0.805
348.31	0.811
348.52	0.811
348.73	0.809
348.93	0.805
349.14	0.807
349.35	0.807
349.56	0.801
349.77	0.797
349.98	0.804
350.19	0.802
350.39	0.797
350.60	0.793
350.81	0.808
351.02	0.806
351.23	0.801
351.44	0.804
351.65	0.807
351.86	0.805
352.06	0.803
352.27	0.802
352.48	0.803
352.69	0.802
352.90	0.797
353.11	0.784
353.31	0.792
353.52	0.789
353.73	0.780
353.94	0.782
354.15	0.788
354.36	0.788
354.57	0.779
354.77	0.781
354.98	0.781
355.19	0.781
355.40	0.781
355.61	0.786
355.82	0.790
356.02	0.789
356.23	0.782
356.44	0.784
356.65	0.788
356.86	0.788
357.07	0.782
357.27	0.785
357.48	0.787
357.69	0.782
357.90	0.767
358.11	0.764
358.32	0.769
358.52	0.772
358.73	0.761
358.94	0.764
359.15	0.768
359.36	0.769
359.56	0.764
359.77	0.761
359.98	0.769
360.19	0.769
360.40	0.765
360.61	0.765
360.81	0.763
361.02	0.763
361.23	0.754
361.44	0.752
361.65	0.753
361.85	0.752
362.06	0.751
362.27	0.753
362.48	0.753
362.69	0.754
362.89	0.749
363.10	0.752
363.31	0.757
363.52	0.760
363.73	0.756
363.93	0.756
364.14	0.759
364.35	0.759
364.56	0.748
364.77	0.750
364.97	0.753
365.18	0.753
365.39	0.748
365.60	0.745
365.81	0.746
366.01	0.745
366.22	0.741
366.43	0.741
366.64	0.744
366.84	0.750
367.05	0.747
367.26	0.746
367.47	0.747
367.68	0.747
367.88	0.743
368.09	0.741
368.30	0.744
368.51	0.744
368.71	0.742
368.92	0.746
369.13	0.744
369.34	0.744
369.55	0.743
369.75	0.743
369.96	0.751
370.17	0.751
370.38	0.747
370.58	0.747
370.79	0.753
371.00	0.751
371.21	0.741
371.41	0.746
371.62	0.750
371.83	0.745
372.04	0.742
372.24	0.735
372.45	0.736
372.66	0.736
372.87	0.733
373.07	0.729
373.28	0.730
373.49	0.735
373.70	0.725
373.90	0.724
374.11	0.735
374.32	0.735
374.53	0.734
374.73	0.734
374.94	0.737
375.15	0.736
375.36	0.735
375.56	0.744
375.77	0.743
375.98	0.744
376.19	0.740
376.39	0.733
376.60	0.736
376.81	0.736
377.02	0.733
377.22	0.732
377.43	0.732
377.64	0.732
377.84	0.722
378.05	0.727
378.26	0.733
378.47	0.732
378.67	0.729
378.88	0.726
379.09	0.726
379.30	0.727
379.50	0.725
379.71	0.726
379.92	0.729
380.12	0.728
380.33	0.721
380.54	0.717
380.75	0.724
380.95	0.724
381.16	0.722
381.37	0.723
381.57	0.725
381.78	0.726
381.99	0.726
382.20	0.725
382.40	0.728
382.61	0.728
382.82	0.724
383.02	0.717
383.23	0.721
383.44	0.721
383.64	0.719
383.85	0.721
384.06	0.724
384.27	0.722
384.47	0.720
384.68	0.721
384.89	0.727
385.09	0.726
385.30	0.726
385.51	0.725
385.71	0.727
385.92	0.728
386.13	0.726
386.33	0.727
386.54	0.728
386.75	0.726
386.95	0.723
387.16	0.718
387.37	0.721
387.58	0.720
387.78	0.718
387.99	0.716
388.20	0.718
388.40	0.714
388.61	0.711
388.82	0.713
389.02	0.716
389.23	0.715
389.44	0.713
389.64	0.713
389.85	0.725
390.06	0.724
390.26	0.725
390.47	0.724
390.68	0.727
390.88	0.725
391.09	0.722
391.30	0.720
391.50	0.721
391.71	0.721
391.92	0.718
392.12	0.710
392.33	0.712
392.53	0.711
392.74	0.710
392.95	0.709
393.15	0.712
393.36	0.714
393.57	0.712
393.77	0.715
393.98	0.717
394.19	0.716
394.39	0.716
394.60	0.716
394.81	0.718
395.01	0.717
395.22	0.715
395.43	0.716
395.63	0.720
395.84	0.721
396.04	0.717
396.25	0.718
396.46	0.720
396.66	0.719
396.87	0.716
397.08	0.714
397.28	0.716
397.49	0.717
397.69	0.713
397.90	0.708
398.11	0.709
398.31	0.709
398.52	0.705
398.73	0.707
398.93	0.706
399.14	0.705
399.34	0.703
399.55	0.703
399.76	0.704
399.96	0.705
400.17	0.703
400.37	0.702
400.58	0.708
400.79	0.710
400.99	0.707
401.20	0.712
401.41	0.715
401.61	0.717
401.82	0.721
402.02	0.721
402.23	0.721
402.44	0.722
402.64	0.721
402.85	0.716
403.05	0.715
403.26	0.714
403.47	0.708
403.67	0.707
403.88	0.707
404.08	0.701
404.29	0.699
404.50	0.699
404.70	0.699
404.91	0.698
405.11	0.695
405.32	0.695
405.52	0.696
405.73	0.695
405.94	0.694
406.14	0.696
406.35	0.698
406.55	0.698
406.76	0.696
406.97	0.696
407.17	0.699
407.38	0.698
407.58	0.697
407.79	0.700
407.99	0.702
408.20	0.703
408.41	0.699
408.61	0.697
408.82	0.698
409.02	0.698
409.23	0.695
409.43	0.694
409.64	0.695
409.84	0.695
410.05	0.692
410.26	0.690
410.46	0.690
410.67	0.690
410.87	0.691
411.08	0.693
411.28	0.694
411.49	0.696
411.69	0.693
411.90	0.695
412.11	0.697
412.31	0.697
412.52	0.695
412.72	0.696
412.93	0.696
413.13	0.695
413.34	0.692
413.54	0.693
413.75	0.695
413.95	0.694
414.16	0.691
414.37	0.694
414.57	0.694
414.78	0.696
414.98	0.695
415.19	0.696
415.39	0.694
415.60	0.696
415.80	0.695
416.01	0.694
416.21	0.696
416.42	0.696
416.62	0.691
416.83	0.690
417.03	0.690
417.24	0.690
417.44	0.688
417.65	0.687
417.86	0.688
418.06	0.686
418.27	0.684
418.47	0.685
418.68	0.686
418.88	0.686
419.09	0.684
419.29	0.685
419.50	0.686
419.70	0.685
419.91	0.684
420.11	0.681
420.32	0.684
420.52	0.684
420.73	0.683
420.93	0.684
421.14	0.686
421.34	0.685
421.55	0.681
421.75	0.680
421.96	0.682
422.16	0.682
422.37	0.681
422.57	0.678
422.78	0.679
422.98	0.676
423.19	0.674
423.39	0.673
423.60	0.677
423.80	0.678
424.01	0.677
424.21	0.679
424.42	0.680
424.62	0.680
424.83	0.679
425.03	0.679
425.23	0.682
425.44	0.682
425.64	0.682
425.85	0.681
426.05	0.682
426.26	0.682
426.46	0.678
426.67	0.677
426.87	0.683
427.08	0.683
427.28	0.681
427.49	0.682
427.69	0.683
427.90	0.682
428.10	0.679
428.31	0.678
428.51	0.680
428.71	0.679
428.92	0.680
429.12	0.677
429.33	0.678
429.53	0.681
429.74	0.685
429.94	0.686
430.15	0.685
430.35	0.685
430.56	0.682
430.76	0.681
430.96	0.682
431.17	0.680
431.37	0.677
431.58	0.676
431.78	0.672
431.99	0.665
432.19	0.667
432.40	0.668
432.60	0.670
432.80	0.672
433.01	0.671
433.21	0.672
433.42	0.674
433.62	0.674
433.83	0.674
434.03	0.677
434.23	0.680
434.44	0.679
434.64	0.676
434.85	0.681
435.05	0.682
435.26	0.682
435.46	0.680
435.66	0.679
435.87	0.678
436.07	0.679
436.28	0.674
436.48	0.671
436.69	0.671
436.89	0.671
437.09	0.665
437.30	0.663
437.50	0.664
437.71	0.676
437.91	0.675
438.11	0.677
438.32	0.681
438.52	0.682
438.73	0.681
438.93	0.679
439.13	0.679
439.34	0.683
439.54	0.681
439.75	0.681
439.95	0.671
440.15	0.676
440.36	0.674
440.56	0.672
440.77	0.673
440.97	0.673
441.17	0.672
441.38	0.673
441.58	0.670
441.79	0.671
441.99	0.669
442.19	0.667
442.40	0.665
442.60	0.665
442.81	0.662
443.01	0.663
443.21	0.664
443.42	0.663
443.62	0.661
443.82	0.661
444.03	0.663
444.23	0.663
444.44	0.663
444.64	0.663
444.84	0.664
445.05	0.663
445.25	0.661
445.45	0.661
445.66	0.664
445.86	0.663
446.06	0.664
446.27	0.663
446.47	0.667
446.68	0.665
446.88	0.663
447.08	0.663
447.29	0.665
447.49	0.665
447.69	0.664
447.90	0.662
448.10	0.666
448.30	0.664
448.51	0.665
448.71	0.662
448.91	0.665
449.12	0.664
449.32	0.666
449.52	0.665
449.73	0.668
449.93	0.667
450.14	0.668
450.34	0.667
450.54	0.669
450.75	0.666
450.95	0.666
451.15	0.666
451.36	0.668
451.56	0.665
451.76	0.664
451.97	0.661
452.17	0.662
452.37	0.661
452.58	0.657
452.78	0.657
452.98	0.659
453.19	0.658
453.39	0.658
453.59	0.657
453.79	0.659
454.00	0.659
454.20	0.658
454.40	0.659
454.61	0.661
454.81	0.662
455.01	0.660
455.22	0.661
455.42	0.663
455.62	0.662
455.83	0.661
456.03	0.665
456.23	0.666
456.44	0.666
456.64	0.665
456.84	0.665
457.04	0.665
457.25	0.665
457.45	0.661
457.65	0.660
457.86	0.661
458.06	0.660
458.26	0.655
458.47	0.655
458.67	0.656
458.87	0.657
459.07	0.654
459.28	0.657
459.48	0.659
459.68	0.659
459.89	0.658
