SpectraSuite Data File
++++++++++++++++++++++++++++++++++++
Date: Fri Jun 19 12:42:26 CEST 2015
User: introlabs
Dark Spectrum Present: Yes
Reference Spectrum Present: Yes
Number of Sampled Component Spectra: 1
Spectrometers: USB4H08886
Integration Time (usec): 745692 (USB4H08886)
Spectra Averaged: 5 (USB4H08886)
Boxcar Smoothing: 5 (USB4H08886)
Correct for Electrical Dark: Yes (USB4H08886)
Strobe/Lamp Enabled: No (USB4H08886)
Correct for Detector Non-linearity: Yes (USB4H08886)
Correct for Stray Light: Yes (USB4H08886)
Number of Pixels in Processed Spectrum: 3648
>>>>>Begin Processed Spectral Data<<<<<
178.14	-0.000
178.36	-0.000
178.57	-0.000
178.79	-0.000
179.01	-0.000
179.22	-0.000
179.44	-0.000
179.65	-0.000
179.87	-0.000
180.08	-0.000
180.30	-0.000
180.52	-0.000
180.73	-0.000
180.95	-0.000
181.16	-0.000
181.38	-0.000
181.59	-0.000
181.81	-0.000
182.03	-0.000
182.24	-0.000
182.46	-0.000
182.67	-0.000
182.89	-0.000
183.10	-0.000
183.32	-0.000
183.54	-0.000
183.75	-0.000
183.97	-0.000
184.18	-0.000
184.40	-0.000
184.61	-0.000
184.83	-0.000
185.04	-0.000
185.26	-0.000
185.48	-0.000
185.69	-0.000
185.91	-0.000
186.12	-0.000
186.34	-0.000
186.55	-0.000
186.77	-0.000
186.98	-0.000
187.20	-0.000
187.42	-0.000
187.63	-0.000
187.85	-0.000
188.06	-0.000
188.28	-0.000
188.49	-0.000
188.71	-0.000
188.92	-0.000
189.14	-0.000
189.36	-0.000
189.57	-0.000
189.79	-0.000
190.00	-0.000
190.22	-0.000
190.43	-0.000
190.65	-0.000
190.86	-0.000
191.08	-0.000
191.29	-0.000
191.51	-0.000
191.72	-0.000
191.94	-0.000
192.16	-0.000
192.37	-0.000
192.59	-0.000
192.80	-0.000
193.02	-0.000
193.23	-0.000
193.45	-0.000
193.66	-0.000
193.88	-0.000
194.09	-0.000
194.31	-0.000
194.52	-0.000
194.74	-0.000
194.95	-0.000
195.17	-0.000
195.38	-0.000
195.60	-0.000
195.81	-0.000
196.03	-0.000
196.25	-0.000
196.46	-0.000
196.68	-0.000
196.89	-0.000
197.11	-0.000
197.32	-0.000
197.54	-0.000
197.75	-0.000
197.97	-0.000
198.18	-0.000
198.40	-0.000
198.61	-0.000
198.83	-0.000
199.04	-0.000
199.26	-0.000
199.47	-0.000
199.69	-0.000
199.90	-0.000
200.12	-0.000
200.33	-0.000
200.55	-0.000
200.76	-0.000
200.98	-0.000
201.19	-0.000
201.41	-0.000
201.62	-0.000
201.84	-0.000
202.05	-0.000
202.27	-0.000
202.48	-0.000
202.70	-0.000
202.91	-0.000
203.13	-0.000
203.34	-0.000
203.56	-0.000
203.77	-0.000
203.99	-0.000
204.20	-0.000
204.42	-0.000
204.63	-0.000
204.85	-0.000
205.06	-0.000
205.28	-0.000
205.49	-0.000
205.71	-0.000
205.92	-0.000
206.14	-0.000
206.35	-0.000
206.56	-0.000
206.78	-0.000
206.99	-0.000
207.21	-0.000
207.42	-0.000
207.64	-0.000
207.85	-0.000
208.07	-0.000
208.28	-0.000
208.50	-0.000
208.71	-0.000
208.93	-0.000
209.14	-0.000
209.36	-0.000
209.57	-0.000
209.79	-0.000
210.00	-0.000
210.22	-0.000
210.43	-0.000
210.64	-0.000
210.86	-0.000
211.07	-0.000
211.29	-0.000
211.50	-0.000
211.72	-0.000
211.93	-0.000
212.15	-0.000
212.36	-0.000
212.58	-0.000
212.79	-0.000
213.01	-0.000
213.22	-0.000
213.43	-0.000
213.65	-0.000
213.86	-0.000
214.08	-0.000
214.29	-0.000
214.51	-0.000
214.72	-0.000
214.94	-0.000
215.15	-0.000
215.36	-0.000
215.58	-0.000
215.79	-0.000
216.01	-0.000
216.22	-0.000
216.44	-0.000
216.65	-0.000
216.87	-0.000
217.08	-0.000
217.29	-0.000
217.51	-0.000
217.72	-0.000
217.94	-0.000
218.15	-0.000
218.37	-0.000
218.58	-0.000
218.80	-0.000
219.01	-0.000
219.22	-0.000
219.44	-0.000
219.65	-0.000
219.87	-0.000
220.08	-0.000
220.30	-0.000
220.51	-0.000
220.72	-0.000
220.94	-0.000
221.15	-0.000
221.37	-0.000
221.58	-0.000
221.79	-0.000
222.01	-0.000
222.22	-0.000
222.44	-0.000
222.65	-0.000
222.87	-0.000
223.08	-0.000
223.29	-0.000
223.51	-0.000
223.72	-0.000
223.94	-0.000
224.15	-0.000
224.36	-0.000
224.58	-0.000
224.79	-0.000
225.01	-0.000
225.22	-0.000
225.44	-0.000
225.65	-0.000
225.86	-0.000
226.08	-0.000
226.29	-0.000
226.51	-0.000
226.72	-0.000
226.93	-0.000
227.15	-0.000
227.36	-0.000
227.58	-0.000
227.79	-0.000
228.00	-0.000
228.22	-0.000
228.43	-0.000
228.65	-0.000
228.86	-0.000
229.07	-0.000
229.29	-0.000
229.50	-0.000
229.72	-0.000
229.93	-0.000
230.14	-0.000
230.36	-0.000
230.57	-0.000
230.78	-0.000
231.00	-0.000
231.21	-0.000
231.43	-0.000
231.64	-0.000
231.85	-0.000
232.07	-0.000
232.28	-0.000
232.50	-0.000
232.71	-0.000
232.92	-0.000
233.14	-0.000
233.35	-0.000
233.56	-0.000
233.78	-0.000
233.99	-0.000
234.21	-0.000
234.42	-0.000
234.63	-0.000
234.85	-0.000
235.06	-0.000
235.27	-0.000
235.49	-0.000
235.70	-0.000
235.91	-0.000
236.13	-0.000
236.34	-0.000
236.56	-0.000
236.77	-0.000
236.98	-0.000
237.20	-0.000
237.41	-0.000
237.62	-0.000
237.84	-0.000
238.05	-0.000
238.26	-0.000
238.48	-0.000
238.69	-0.000
238.91	-0.000
239.12	-0.000
239.33	-0.000
239.55	-0.000
239.76	-0.000
239.97	-0.000
240.19	-0.000
240.40	-0.000
240.61	-0.000
240.83	-0.000
241.04	-0.000
241.25	-0.000
241.47	-0.000
241.68	-0.000
241.89	-0.000
242.11	-0.000
242.32	-0.000
242.53	-0.000
242.75	-0.000
242.96	-0.000
243.17	-0.000
243.39	-0.000
243.60	-0.000
243.81	-0.000
244.03	-0.000
244.24	-0.000
244.45	-0.000
244.67	-0.000
244.88	-0.000
245.09	-0.000
245.31	-0.000
245.52	-0.000
245.73	-0.000
245.95	-0.000
246.16	-0.000
246.37	-0.000
246.59	-0.000
246.80	-0.000
247.01	-0.000
247.23	-0.000
247.44	-0.000
247.65	-0.000
247.87	-0.000
248.08	-0.000
248.29	-0.000
248.51	-0.000
248.72	-0.000
248.93	-0.000
249.15	-0.000
249.36	-0.000
249.57	-0.000
249.78	-0.000
250.00	-0.000
250.21	-0.000
250.42	-0.000
250.64	-0.000
250.85	-0.000
251.06	-0.000
251.28	-0.000
251.49	-0.000
251.70	-0.000
251.92	-0.000
252.13	-0.000
252.34	-0.000
252.55	-0.000
252.77	-0.000
252.98	-0.000
253.19	-0.000
253.41	-0.000
253.62	-0.000
253.83	-0.000
254.05	-0.000
254.26	-0.000
254.47	-0.000
254.68	-0.000
254.90	-0.000
255.11	-0.000
255.32	-0.000
255.54	-0.000
255.75	-0.000
255.96	-0.000
256.17	-0.000
256.39	-0.000
256.60	-0.000
256.81	-0.000
257.03	-0.000
257.24	-0.000
257.45	-0.000
257.66	-0.000
257.88	-0.000
258.09	-0.000
258.30	-0.000
258.51	-0.000
258.73	-0.000
258.94	-0.000
259.15	-0.000
259.37	-0.000
259.58	-0.000
259.79	-0.000
260.00	-0.000
260.22	-0.000
260.43	-0.000
260.64	-0.000
260.85	-0.000
261.07	-0.000
261.28	-0.000
261.49	-0.000
261.71	-0.000
261.92	-0.000
262.13	-0.000
262.34	-0.000
262.56	-0.000
262.77	-0.000
262.98	-0.000
263.19	-0.000
263.41	-0.000
263.62	-0.000
263.83	-0.000
264.04	-0.000
264.26	-0.000
264.47	-0.000
264.68	-0.000
264.89	-0.000
265.11	-0.000
265.32	-0.000
265.53	-0.000
265.74	-0.000
265.96	-0.000
266.17	-0.000
266.38	-0.000
266.59	-0.000
266.81	-0.000
267.02	-0.000
267.23	-0.000
267.44	-0.000
267.65	-0.000
267.87	-0.000
268.08	-0.000
268.29	-0.000
268.50	-0.000
268.72	-0.000
268.93	-0.000
269.14	-0.000
269.35	-0.000
269.57	-0.000
269.78	-0.000
269.99	-0.000
270.20	-0.000
270.41	-0.000
270.63	-0.000
270.84	-0.000
271.05	-0.000
271.26	-0.000
271.48	-0.000
271.69	-0.000
271.90	-0.000
272.11	-0.000
272.32	-0.000
272.54	-0.000
272.75	-0.000
272.96	-0.000
273.17	-0.000
273.39	-0.000
273.60	-0.000
273.81	-0.000
274.02	-0.000
274.23	-0.000
274.45	-0.000
274.66	-0.000
274.87	-0.000
275.08	-0.000
275.29	-0.000
275.51	-0.000
275.72	-0.000
275.93	-0.000
276.14	-0.000
276.35	-0.000
276.57	-0.000
276.78	-0.000
276.99	-0.000
277.20	-0.000
277.41	-0.000
277.63	-0.000
277.84	-0.000
278.05	-0.000
278.26	-0.000
278.47	-0.000
278.69	-0.000
278.90	-0.000
279.11	-0.000
279.32	-0.000
279.53	-0.000
279.74	-0.000
279.96	-0.000
280.17	-0.000
280.38	-0.000
280.59	-0.000
280.80	-0.000
281.02	-0.000
281.23	-0.000
281.44	-0.000
281.65	-0.000
281.86	-0.000
282.07	-0.000
282.29	-0.000
282.50	-0.000
282.71	-0.000
282.92	-0.000
283.13	-0.000
283.35	-0.000
283.56	-0.000
283.77	-0.000
283.98	-0.000
284.19	-0.000
284.40	-0.000
284.62	-0.000
284.83	-0.000
285.04	-0.000
285.25	-0.000
285.46	-0.000
285.67	-0.000
285.88	-0.000
286.10	-0.000
286.31	-0.000
286.52	-0.000
286.73	-0.000
286.94	-0.000
287.15	-0.000
287.37	-0.000
287.58	-0.000
287.79	-0.000
288.00	-0.000
288.21	-0.000
288.42	-0.000
288.63	-0.000
288.85	-0.000
289.06	-0.000
289.27	-0.000
289.48	-0.000
289.69	-0.000
289.90	-0.000
290.11	-0.000
290.33	-0.000
290.54	-0.000
290.75	-0.000
290.96	-0.000
291.17	-0.000
291.38	-0.000
291.59	-0.000
291.81	-0.000
292.02	-0.000
292.23	-0.000
292.44	-0.000
292.65	-0.000
292.86	-0.000
293.07	-0.000
293.28	-0.000
293.50	-0.000
293.71	-0.000
293.92	-0.000
294.13	-0.000
294.34	-0.000
294.55	-0.000
294.76	-0.000
294.97	-0.000
295.19	-0.000
295.40	-0.000
295.61	-0.000
295.82	-0.000
296.03	-0.000
296.24	-0.000
296.45	2.402
296.66	1.838
296.87	1.845
297.09	1.969
297.30	2.251
297.51	1.733
297.72	1.683
297.93	1.793
298.14	1.746
298.35	1.683
298.56	1.650
298.77	1.793
298.99	1.742
299.20	1.691
299.41	1.661
299.62	1.634
299.83	1.625
300.04	1.549
300.25	1.541
300.46	1.600
300.67	1.572
300.88	1.511
301.10	1.505
301.31	1.598
301.52	1.541
301.73	1.469
301.94	1.474
302.15	1.491
302.36	1.446
302.57	1.380
302.78	1.384
302.99	1.428
303.20	1.445
303.41	1.354
303.63	1.332
303.84	1.339
304.05	1.339
304.26	1.277
304.47	1.289
304.68	1.295
304.89	1.285
305.10	1.234
305.31	1.221
305.52	1.261
305.73	1.256
305.94	1.216
306.15	1.210
306.37	1.232
306.58	1.236
306.79	1.201
307.00	1.217
307.21	1.256
307.42	1.255
307.63	1.220
307.84	1.191
308.05	1.226
308.26	1.227
308.47	1.203
308.68	1.200
308.89	1.207
309.10	1.202
309.31	1.161
309.52	1.152
309.73	1.170
309.95	1.161
310.16	1.131
310.37	1.123
310.58	1.140
310.79	1.138
311.00	1.128
311.21	1.127
311.42	1.134
311.63	1.129
311.84	1.109
312.05	1.105
312.26	1.130
312.47	1.142
312.68	1.115
312.89	1.100
313.10	1.110
313.31	1.087
313.52	1.084
313.73	1.083
313.94	1.089
314.15	1.072
314.36	1.049
314.57	1.041
314.78	1.031
314.99	1.026
315.21	1.012
315.42	1.015
315.63	1.030
315.84	1.009
316.05	0.995
316.26	1.002
316.47	1.021
316.68	1.017
316.89	0.999
317.10	1.017
317.31	1.023
317.52	1.024
317.73	1.003
317.94	1.001
318.15	1.042
318.36	1.040
318.57	1.021
318.78	1.010
318.99	1.046
319.20	1.042
319.41	1.008
319.62	1.008
319.83	1.020
320.04	1.015
320.25	1.002
320.46	0.973
320.67	0.978
320.88	0.974
321.09	0.959
321.30	0.945
321.51	0.961
321.72	0.959
321.93	0.945
322.14	0.940
322.35	0.967
322.56	0.967
322.77	0.954
322.98	0.964
323.19	0.975
323.40	0.981
323.61	0.960
323.82	0.955
324.03	0.962
324.24	0.958
324.45	0.944
324.66	0.925
324.87	0.924
325.08	0.923
325.29	0.904
325.50	0.901
325.71	0.907
325.92	0.915
326.13	0.901
326.34	0.901
326.55	0.911
326.76	0.909
326.97	0.899
327.18	0.894
327.39	0.919
327.60	0.919
327.80	0.914
328.01	0.913
328.22	0.912
328.43	0.916
328.64	0.904
328.85	0.908
329.06	0.911
329.27	0.909
329.48	0.903
329.69	0.886
329.90	0.897
330.11	0.889
330.32	0.881
330.53	0.876
330.74	0.877
330.95	0.875
331.16	0.859
331.37	0.866
331.58	0.869
331.79	0.868
332.00	0.859
332.21	0.852
332.42	0.858
332.63	0.851
332.83	0.843
333.04	0.845
333.25	0.859
333.46	0.857
333.67	0.844
333.88	0.845
334.09	0.854
334.30	0.852
334.51	0.844
334.72	0.839
334.93	0.842
335.14	0.843
335.35	0.836
335.56	0.830
335.77	0.839
335.98	0.837
336.18	0.829
336.39	0.824
336.60	0.828
336.81	0.826
337.02	0.824
337.23	0.828
337.44	0.831
337.65	0.832
337.86	0.823
338.07	0.819
338.28	0.825
338.49	0.823
338.70	0.815
338.91	0.822
339.11	0.829
339.32	0.826
339.53	0.813
339.74	0.811
339.95	0.810
340.16	0.808
340.37	0.800
340.58	0.798
340.79	0.803
341.00	0.804
341.21	0.793
341.41	0.794
341.62	0.796
341.83	0.798
342.04	0.792
342.25	0.801
342.46	0.806
342.67	0.805
342.88	0.797
343.09	0.797
343.30	0.804
343.50	0.806
343.71	0.796
343.92	0.796
344.13	0.802
344.34	0.801
344.55	0.785
344.76	0.785
344.97	0.790
345.18	0.789
345.38	0.786
345.59	0.780
345.80	0.781
346.01	0.779
346.22	0.773
346.43	0.767
346.64	0.776
346.85	0.775
347.06	0.768
347.26	0.768
347.47	0.773
347.68	0.768
347.89	0.765
348.10	0.760
348.31	0.769
348.52	0.768
348.73	0.765
348.93	0.762
349.14	0.765
349.35	0.764
349.56	0.758
349.77	0.754
349.98	0.760
350.19	0.757
350.39	0.752
350.60	0.747
350.81	0.762
351.02	0.761
351.23	0.757
351.44	0.758
351.65	0.762
351.86	0.760
352.06	0.758
352.27	0.758
352.48	0.760
352.69	0.760
352.90	0.755
353.11	0.743
353.31	0.749
353.52	0.745
353.73	0.737
353.94	0.739
354.15	0.746
354.36	0.746
354.57	0.737
354.77	0.739
354.98	0.739
355.19	0.739
355.40	0.738
355.61	0.744
355.82	0.749
356.02	0.748
356.23	0.741
356.44	0.743
356.65	0.747
356.86	0.748
357.07	0.741
357.27	0.745
357.48	0.747
357.69	0.744
357.90	0.729
358.11	0.726
358.32	0.731
358.52	0.734
358.73	0.723
358.94	0.726
359.15	0.731
359.36	0.732
359.56	0.726
359.77	0.723
359.98	0.730
360.19	0.730
360.40	0.727
360.61	0.727
360.81	0.727
361.02	0.728
361.23	0.719
361.44	0.718
361.65	0.719
361.85	0.718
362.06	0.716
362.27	0.718
362.48	0.719
362.69	0.721
362.89	0.714
363.10	0.716
363.31	0.721
363.52	0.725
363.73	0.719
363.93	0.718
364.14	0.722
364.35	0.724
364.56	0.713
364.77	0.715
364.97	0.718
365.18	0.719
365.39	0.713
365.60	0.710
365.81	0.711
366.01	0.710
366.22	0.708
366.43	0.707
366.64	0.709
366.84	0.715
367.05	0.711
367.26	0.711
367.47	0.713
367.68	0.714
367.88	0.710
368.09	0.709
368.30	0.712
368.51	0.712
368.71	0.711
368.92	0.715
369.13	0.714
369.34	0.713
369.55	0.712
369.75	0.713
369.96	0.720
370.17	0.720
370.38	0.715
370.58	0.714
370.79	0.720
371.00	0.718
371.21	0.709
371.41	0.714
371.62	0.719
371.83	0.714
372.04	0.711
372.24	0.704
372.45	0.706
372.66	0.707
372.87	0.703
373.07	0.700
373.28	0.702
373.49	0.704
373.70	0.695
373.90	0.694
374.11	0.703
374.32	0.702
374.53	0.701
374.73	0.701
374.94	0.705
375.15	0.705
375.36	0.702
375.56	0.711
375.77	0.712
375.98	0.712
376.19	0.709
376.39	0.703
376.60	0.708
376.81	0.708
377.02	0.705
377.22	0.703
377.43	0.704
377.64	0.703
377.84	0.694
378.05	0.698
378.26	0.704
378.47	0.703
378.67	0.700
378.88	0.697
379.09	0.698
379.30	0.698
379.50	0.695
379.71	0.697
379.92	0.701
380.12	0.701
380.33	0.692
380.54	0.688
380.75	0.695
380.95	0.696
381.16	0.693
381.37	0.694
381.57	0.696
381.78	0.697
381.99	0.696
382.20	0.695
382.40	0.699
382.61	0.699
382.82	0.695
383.02	0.688
383.23	0.691
383.44	0.691
383.64	0.688
383.85	0.690
384.06	0.693
384.27	0.691
384.47	0.688
384.68	0.687
384.89	0.693
385.09	0.693
385.30	0.693
385.51	0.692
385.71	0.696
385.92	0.696
386.13	0.694
386.33	0.695
386.54	0.697
386.75	0.696
386.95	0.691
387.16	0.687
387.37	0.690
387.58	0.689
387.78	0.686
387.99	0.683
388.20	0.686
388.40	0.684
388.61	0.680
388.82	0.682
389.02	0.685
389.23	0.686
389.44	0.683
389.64	0.683
389.85	0.695
390.06	0.694
390.26	0.694
390.47	0.693
390.68	0.695
390.88	0.694
391.09	0.689
391.30	0.687
391.50	0.687
391.71	0.687
391.92	0.684
392.12	0.677
392.33	0.677
392.53	0.677
392.74	0.677
392.95	0.676
393.15	0.679
393.36	0.681
393.57	0.679
393.77	0.681
393.98	0.683
394.19	0.683
394.39	0.682
394.60	0.684
394.81	0.686
395.01	0.684
395.22	0.681
395.43	0.682
395.63	0.686
395.84	0.687
396.04	0.683
396.25	0.685
396.46	0.687
396.66	0.685
396.87	0.681
397.08	0.677
397.28	0.680
397.49	0.681
397.69	0.677
397.90	0.672
398.11	0.674
398.31	0.674
398.52	0.670
398.73	0.671
398.93	0.671
399.14	0.670
399.34	0.669
399.55	0.670
399.76	0.670
399.96	0.671
400.17	0.669
400.37	0.666
400.58	0.673
400.79	0.674
400.99	0.671
401.20	0.676
401.41	0.679
401.61	0.679
401.82	0.684
402.02	0.684
402.23	0.685
402.44	0.686
402.64	0.685
402.85	0.680
403.05	0.680
403.26	0.679
403.47	0.672
403.67	0.672
403.88	0.673
404.08	0.666
404.29	0.663
404.50	0.663
404.70	0.663
404.91	0.662
405.11	0.659
405.32	0.659
405.52	0.659
405.73	0.659
405.94	0.656
406.14	0.658
406.35	0.661
406.55	0.661
406.76	0.658
406.97	0.659
407.17	0.662
407.38	0.661
407.58	0.659
407.79	0.663
407.99	0.665
408.20	0.667
408.41	0.662
408.61	0.661
408.82	0.662
409.02	0.662
409.23	0.660
409.43	0.659
409.64	0.661
409.84	0.661
410.05	0.657
410.26	0.656
410.46	0.655
410.67	0.655
410.87	0.656
411.08	0.657
411.28	0.658
411.49	0.659
411.69	0.657
411.90	0.657
412.11	0.659
412.31	0.660
412.52	0.658
412.72	0.660
412.93	0.661
413.13	0.659
413.34	0.656
413.54	0.657
413.75	0.658
413.95	0.658
414.16	0.655
414.37	0.657
414.57	0.657
414.78	0.660
414.98	0.657
415.19	0.658
415.39	0.657
415.60	0.659
415.80	0.658
416.01	0.656
416.21	0.659
416.42	0.659
416.62	0.654
416.83	0.655
417.03	0.655
417.24	0.655
417.44	0.653
417.65	0.652
417.86	0.652
418.06	0.651
418.27	0.649
418.47	0.651
418.68	0.651
418.88	0.651
419.09	0.649
419.29	0.650
419.50	0.651
419.70	0.651
419.91	0.649
420.11	0.647
420.32	0.649
420.52	0.649
420.73	0.647
420.93	0.648
421.14	0.650
421.34	0.649
421.55	0.645
421.75	0.644
421.96	0.646
422.16	0.646
422.37	0.645
422.57	0.643
422.78	0.645
422.98	0.642
423.19	0.640
423.39	0.639
423.60	0.642
423.80	0.644
424.01	0.642
424.21	0.644
424.42	0.645
424.62	0.646
424.83	0.644
425.03	0.644
425.23	0.647
425.44	0.647
425.64	0.647
425.85	0.646
426.05	0.647
426.26	0.648
426.46	0.644
426.67	0.644
426.87	0.649
427.08	0.649
427.28	0.647
427.49	0.648
427.69	0.649
427.90	0.648
428.10	0.646
428.31	0.646
428.51	0.648
428.71	0.647
428.92	0.649
429.12	0.646
429.33	0.647
429.53	0.651
429.74	0.655
429.94	0.654
430.15	0.654
430.35	0.655
430.56	0.651
430.76	0.651
430.96	0.653
431.17	0.650
431.37	0.647
431.58	0.645
431.78	0.643
431.99	0.636
432.19	0.639
432.40	0.640
432.60	0.641
432.80	0.644
433.01	0.642
433.21	0.642
433.42	0.644
433.62	0.645
433.83	0.645
434.03	0.647
434.23	0.651
434.44	0.649
434.64	0.647
434.85	0.652
435.05	0.652
435.26	0.653
435.46	0.651
435.66	0.651
435.87	0.651
436.07	0.651
436.28	0.647
436.48	0.644
436.69	0.644
436.89	0.644
437.09	0.639
437.30	0.638
437.50	0.639
437.71	0.650
437.91	0.649
438.11	0.650
438.32	0.655
438.52	0.655
438.73	0.654
438.93	0.653
439.13	0.653
439.34	0.656
439.54	0.654
439.75	0.654
439.95	0.645
440.15	0.649
440.36	0.648
440.56	0.646
440.77	0.646
440.97	0.647
441.17	0.645
441.38	0.646
441.58	0.644
441.79	0.644
441.99	0.642
442.19	0.641
442.40	0.639
442.60	0.639
442.81	0.636
443.01	0.637
443.21	0.638
443.42	0.638
443.62	0.636
443.82	0.636
444.03	0.638
444.23	0.638
444.44	0.638
444.64	0.637
444.84	0.639
445.05	0.639
445.25	0.636
445.45	0.637
445.66	0.640
445.86	0.639
446.06	0.640
446.27	0.639
446.47	0.643
446.68	0.642
446.88	0.640
447.08	0.639
447.29	0.642
447.49	0.642
447.69	0.642
447.90	0.640
448.10	0.644
448.30	0.642
448.51	0.643
448.71	0.641
448.91	0.644
449.12	0.643
449.32	0.644
449.52	0.643
449.73	0.648
449.93	0.647
450.14	0.647
450.34	0.647
450.54	0.649
450.75	0.646
450.95	0.645
451.15	0.645
451.36	0.648
451.56	0.645
451.76	0.644
451.97	0.640
452.17	0.641
452.37	0.640
452.58	0.636
452.78	0.636
452.98	0.639
453.19	0.638
453.39	0.638
453.59	0.637
453.79	0.638
454.00	0.639
454.20	0.639
454.40	0.639
454.61	0.641
454.81	0.642
455.01	0.640
455.22	0.641
455.42	0.643
455.62	0.641
455.83	0.641
456.03	0.644
456.23	0.645
456.44	0.646
456.64	0.644
456.84	0.644
457.04	0.646
457.25	0.645
457.45	0.641
457.65	0.640
457.86	0.642
458.06	0.640
458.26	0.636
458.47	0.635
458.67	0.637
458.87	0.637
459.07	0.634
459.28	0.636
459.48	0.639
459.68	0.640
459.89	0.639
