SpectraSuite Data File
++++++++++++++++++++++++++++++++++++
Date: Fri Jun 19 16:52:41 CEST 2015
User: introlabs
Dark Spectrum Present: Yes
Reference Spectrum Present: Yes
Number of Sampled Component Spectra: 1
Spectrometers: USB4H08886
Integration Time (usec): 745692 (USB4H08886)
Spectra Averaged: 5 (USB4H08886)
Boxcar Smoothing: 5 (USB4H08886)
Correct for Electrical Dark: Yes (USB4H08886)
Strobe/Lamp Enabled: No (USB4H08886)
Correct for Detector Non-linearity: Yes (USB4H08886)
Correct for Stray Light: Yes (USB4H08886)
Number of Pixels in Processed Spectrum: 3648
>>>>>Begin Processed Spectral Data<<<<<
178.14	-0.000
178.36	-0.000
178.57	-0.000
178.79	-0.000
179.01	-0.000
179.22	-0.000
179.44	-0.000
179.65	-0.000
179.87	-0.000
180.08	-0.000
180.30	-0.000
180.52	-0.000
180.73	-0.000
180.95	-0.000
181.16	-0.000
181.38	-0.000
181.59	-0.000
181.81	-0.000
182.03	-0.000
182.24	-0.000
182.46	-0.000
182.67	-0.000
182.89	-0.000
183.10	-0.000
183.32	-0.000
183.54	-0.000
183.75	-0.000
183.97	-0.000
184.18	-0.000
184.40	-0.000
184.61	-0.000
184.83	-0.000
185.04	-0.000
185.26	-0.000
185.48	-0.000
185.69	-0.000
185.91	-0.000
186.12	-0.000
186.34	-0.000
186.55	-0.000
186.77	-0.000
186.98	-0.000
187.20	-0.000
187.42	-0.000
187.63	-0.000
187.85	-0.000
188.06	-0.000
188.28	-0.000
188.49	-0.000
188.71	-0.000
188.92	-0.000
189.14	-0.000
189.36	-0.000
189.57	-0.000
189.79	-0.000
190.00	-0.000
190.22	-0.000
190.43	-0.000
190.65	-0.000
190.86	-0.000
191.08	-0.000
191.29	-0.000
191.51	-0.000
191.72	-0.000
191.94	-0.000
192.16	-0.000
192.37	-0.000
192.59	-0.000
192.80	-0.000
193.02	-0.000
193.23	-0.000
193.45	-0.000
193.66	-0.000
193.88	-0.000
194.09	-0.000
194.31	-0.000
194.52	-0.000
194.74	-0.000
194.95	-0.000
195.17	-0.000
195.38	-0.000
195.60	-0.000
195.81	-0.000
196.03	-0.000
196.25	-0.000
196.46	-0.000
196.68	-0.000
196.89	-0.000
197.11	-0.000
197.32	-0.000
197.54	-0.000
197.75	-0.000
197.97	-0.000
198.18	-0.000
198.40	-0.000
198.61	-0.000
198.83	-0.000
199.04	-0.000
199.26	-0.000
199.47	-0.000
199.69	-0.000
199.90	-0.000
200.12	-0.000
200.33	-0.000
200.55	-0.000
200.76	-0.000
200.98	-0.000
201.19	-0.000
201.41	-0.000
201.62	-0.000
201.84	-0.000
202.05	-0.000
202.27	-0.000
202.48	-0.000
202.70	-0.000
202.91	-0.000
203.13	-0.000
203.34	-0.000
203.56	-0.000
203.77	-0.000
203.99	-0.000
204.20	-0.000
204.42	-0.000
204.63	-0.000
204.85	-0.000
205.06	-0.000
205.28	-0.000
205.49	-0.000
205.71	-0.000
205.92	-0.000
206.14	-0.000
206.35	-0.000
206.56	-0.000
206.78	-0.000
206.99	-0.000
207.21	-0.000
207.42	-0.000
207.64	-0.000
207.85	-0.000
208.07	-0.000
208.28	-0.000
208.50	-0.000
208.71	-0.000
208.93	-0.000
209.14	-0.000
209.36	-0.000
209.57	-0.000
209.79	-0.000
210.00	-0.000
210.22	-0.000
210.43	-0.000
210.64	-0.000
210.86	-0.000
211.07	-0.000
211.29	-0.000
211.50	-0.000
211.72	-0.000
211.93	-0.000
212.15	-0.000
212.36	-0.000
212.58	-0.000
212.79	-0.000
213.01	-0.000
213.22	-0.000
213.43	-0.000
213.65	-0.000
213.86	-0.000
214.08	-0.000
214.29	-0.000
214.51	-0.000
214.72	-0.000
214.94	-0.000
215.15	-0.000
215.36	-0.000
215.58	-0.000
215.79	-0.000
216.01	-0.000
216.22	-0.000
216.44	-0.000
216.65	-0.000
216.87	-0.000
217.08	-0.000
217.29	-0.000
217.51	-0.000
217.72	-0.000
217.94	-0.000
218.15	-0.000
218.37	-0.000
218.58	-0.000
218.80	-0.000
219.01	-0.000
219.22	-0.000
219.44	-0.000
219.65	-0.000
219.87	-0.000
220.08	-0.000
220.30	-0.000
220.51	-0.000
220.72	-0.000
220.94	-0.000
221.15	-0.000
221.37	-0.000
221.58	-0.000
221.79	-0.000
222.01	-0.000
222.22	-0.000
222.44	-0.000
222.65	-0.000
222.87	-0.000
223.08	-0.000
223.29	-0.000
223.51	-0.000
223.72	-0.000
223.94	-0.000
224.15	-0.000
224.36	-0.000
224.58	-0.000
224.79	-0.000
225.01	-0.000
225.22	-0.000
225.44	-0.000
225.65	-0.000
225.86	-0.000
226.08	-0.000
226.29	-0.000
226.51	-0.000
226.72	-0.000
226.93	-0.000
227.15	-0.000
227.36	-0.000
227.58	-0.000
227.79	-0.000
228.00	-0.000
228.22	-0.000
228.43	-0.000
228.65	-0.000
228.86	-0.000
229.07	-0.000
229.29	-0.000
229.50	-0.000
229.72	-0.000
229.93	-0.000
230.14	-0.000
230.36	-0.000
230.57	-0.000
230.78	-0.000
231.00	-0.000
231.21	-0.000
231.43	-0.000
231.64	-0.000
231.85	-0.000
232.07	-0.000
232.28	-0.000
232.50	-0.000
232.71	-0.000
232.92	-0.000
233.14	-0.000
233.35	-0.000
233.56	-0.000
233.78	-0.000
233.99	-0.000
234.21	-0.000
234.42	-0.000
234.63	-0.000
234.85	-0.000
235.06	-0.000
235.27	-0.000
235.49	-0.000
235.70	-0.000
235.91	-0.000
236.13	-0.000
236.34	-0.000
236.56	-0.000
236.77	-0.000
236.98	-0.000
237.20	-0.000
237.41	-0.000
237.62	-0.000
237.84	-0.000
238.05	-0.000
238.26	-0.000
238.48	-0.000
238.69	-0.000
238.91	-0.000
239.12	-0.000
239.33	-0.000
239.55	-0.000
239.76	-0.000
239.97	-0.000
240.19	-0.000
240.40	-0.000
240.61	-0.000
240.83	-0.000
241.04	-0.000
241.25	-0.000
241.47	-0.000
241.68	-0.000
241.89	-0.000
242.11	-0.000
242.32	-0.000
242.53	-0.000
242.75	-0.000
242.96	-0.000
243.17	-0.000
243.39	-0.000
243.60	-0.000
243.81	-0.000
244.03	-0.000
244.24	-0.000
244.45	-0.000
244.67	-0.000
244.88	-0.000
245.09	-0.000
245.31	-0.000
245.52	-0.000
245.73	-0.000
245.95	-0.000
246.16	-0.000
246.37	-0.000
246.59	-0.000
246.80	-0.000
247.01	-0.000
247.23	-0.000
247.44	-0.000
247.65	-0.000
247.87	-0.000
248.08	-0.000
248.29	-0.000
248.51	-0.000
248.72	-0.000
248.93	-0.000
249.15	-0.000
249.36	-0.000
249.57	-0.000
249.78	-0.000
250.00	-0.000
250.21	-0.000
250.42	-0.000
250.64	-0.000
250.85	-0.000
251.06	-0.000
251.28	-0.000
251.49	-0.000
251.70	-0.000
251.92	-0.000
252.13	-0.000
252.34	-0.000
252.55	-0.000
252.77	-0.000
252.98	-0.000
253.19	-0.000
253.41	-0.000
253.62	-0.000
253.83	-0.000
254.05	-0.000
254.26	-0.000
254.47	-0.000
254.68	-0.000
254.90	-0.000
255.11	-0.000
255.32	-0.000
255.54	-0.000
255.75	-0.000
255.96	-0.000
256.17	-0.000
256.39	-0.000
256.60	-0.000
256.81	-0.000
257.03	-0.000
257.24	-0.000
257.45	-0.000
257.66	-0.000
257.88	-0.000
258.09	-0.000
258.30	-0.000
258.51	-0.000
258.73	-0.000
258.94	-0.000
259.15	-0.000
259.37	-0.000
259.58	-0.000
259.79	-0.000
260.00	-0.000
260.22	-0.000
260.43	-0.000
260.64	-0.000
260.85	-0.000
261.07	-0.000
261.28	-0.000
261.49	-0.000
261.71	-0.000
261.92	-0.000
262.13	-0.000
262.34	-0.000
262.56	-0.000
262.77	-0.000
262.98	-0.000
263.19	-0.000
263.41	-0.000
263.62	-0.000
263.83	-0.000
264.04	-0.000
264.26	-0.000
264.47	-0.000
264.68	-0.000
264.89	-0.000
265.11	-0.000
265.32	-0.000
265.53	-0.000
265.74	-0.000
265.96	-0.000
266.17	-0.000
266.38	-0.000
266.59	-0.000
266.81	-0.000
267.02	-0.000
267.23	-0.000
267.44	-0.000
267.65	-0.000
267.87	-0.000
268.08	-0.000
268.29	-0.000
268.50	-0.000
268.72	-0.000
268.93	-0.000
269.14	-0.000
269.35	-0.000
269.57	-0.000
269.78	-0.000
269.99	-0.000
270.20	-0.000
270.41	-0.000
270.63	-0.000
270.84	-0.000
271.05	-0.000
271.26	-0.000
271.48	-0.000
271.69	-0.000
271.90	-0.000
272.11	-0.000
272.32	-0.000
272.54	-0.000
272.75	-0.000
272.96	-0.000
273.17	-0.000
273.39	-0.000
273.60	-0.000
273.81	-0.000
274.02	-0.000
274.23	-0.000
274.45	-0.000
274.66	-0.000
274.87	-0.000
275.08	-0.000
275.29	-0.000
275.51	-0.000
275.72	-0.000
275.93	-0.000
276.14	-0.000
276.35	-0.000
276.57	-0.000
276.78	-0.000
276.99	-0.000
277.20	-0.000
277.41	-0.000
277.63	-0.000
277.84	-0.000
278.05	-0.000
278.26	-0.000
278.47	-0.000
278.69	-0.000
278.90	-0.000
279.11	-0.000
279.32	-0.000
279.53	-0.000
279.74	-0.000
279.96	-0.000
280.17	-0.000
280.38	-0.000
280.59	-0.000
280.80	-0.000
281.02	-0.000
281.23	-0.000
281.44	-0.000
281.65	-0.000
281.86	-0.000
282.07	-0.000
282.29	-0.000
282.50	-0.000
282.71	-0.000
282.92	-0.000
283.13	-0.000
283.35	-0.000
283.56	-0.000
283.77	-0.000
283.98	-0.000
284.19	-0.000
284.40	-0.000
284.62	-0.000
284.83	-0.000
285.04	-0.000
285.25	-0.000
285.46	-0.000
285.67	-0.000
285.88	-0.000
286.10	-0.000
286.31	-0.000
286.52	-0.000
286.73	-0.000
286.94	-0.000
287.15	-0.000
287.37	-0.000
287.58	-0.000
287.79	-0.000
288.00	-0.000
288.21	-0.000
288.42	-0.000
288.63	-0.000
288.85	-0.000
289.06	-0.000
289.27	-0.000
289.48	-0.000
289.69	-0.000
289.90	-0.000
290.11	-0.000
290.33	-0.000
290.54	-0.000
290.75	-0.000
290.96	-0.000
291.17	-0.000
291.38	-0.000
291.59	-0.000
291.81	-0.000
292.02	-0.000
292.23	-0.000
292.44	-0.000
292.65	-0.000
292.86	-0.000
293.07	-0.000
293.28	-0.000
293.50	-0.000
293.71	-0.000
293.92	-0.000
294.13	-0.000
294.34	-0.000
294.55	-0.000
294.76	-0.000
294.97	-0.000
295.19	-0.000
295.40	-0.000
295.61	-0.000
295.82	-0.000
296.03	-0.000
296.24	-0.000
296.45	-0.000
296.66	-0.000
296.87	-0.000
297.09	-0.000
297.30	-0.000
297.51	-0.000
297.72	-0.000
297.93	-0.000
298.14	-0.000
298.35	-0.000
298.56	-0.000
298.77	-0.000
298.99	-0.000
299.20	-0.000
299.41	-0.000
299.62	-0.000
299.83	-0.000
300.04	-0.000
300.25	-0.000
300.46	-0.000
300.67	-0.000
300.88	-0.000
301.10	-0.000
301.31	-0.000
301.52	-0.000
301.73	-0.000
301.94	-0.000
302.15	-0.000
302.36	-0.000
302.57	-0.000
302.78	-0.000
302.99	-0.000
303.20	-0.000
303.41	-0.000
303.63	-0.000
303.84	-0.000
304.05	-0.000
304.26	-0.000
304.47	-0.000
304.68	-0.000
304.89	-0.000
305.10	-0.000
305.31	-0.000
305.52	-0.000
305.73	-0.000
305.94	-0.000
306.15	-0.000
306.37	-0.000
306.58	-0.000
306.79	-0.000
307.00	-0.000
307.21	-0.000
307.42	-0.000
307.63	-0.000
307.84	-0.000
308.05	-0.000
308.26	-0.000
308.47	-0.000
308.68	-0.000
308.89	-0.000
309.10	-0.000
309.31	-0.000
309.52	-0.000
309.73	-0.000
309.95	-0.000
310.16	-0.000
310.37	-0.000
310.58	-0.000
310.79	-0.000
311.00	-0.000
311.21	-0.000
311.42	-0.000
311.63	-0.000
311.84	-0.000
312.05	-0.000
312.26	-0.000
312.47	-0.000
312.68	-0.000
312.89	-0.000
313.10	-0.000
313.31	-0.000
313.52	-0.000
313.73	-0.000
313.94	-0.000
314.15	-0.000
314.36	-0.000
314.57	-0.000
314.78	-0.000
314.99	-0.000
315.21	-0.000
315.42	-0.000
315.63	-0.000
315.84	-0.000
316.05	-0.000
316.26	-0.000
316.47	-0.000
316.68	-0.000
316.89	-0.000
317.10	-0.000
317.31	-0.000
317.52	-0.000
317.73	-0.000
317.94	-0.000
318.15	-0.000
318.36	-0.000
318.57	-0.000
318.78	-0.000
318.99	-0.000
319.20	-0.000
319.41	-0.000
319.62	-0.000
319.83	-0.000
320.04	-0.000
320.25	-0.000
320.46	-0.000
320.67	-0.000
320.88	-0.000
321.09	-0.000
321.30	-0.000
321.51	-0.000
321.72	-0.000
321.93	-0.000
322.14	-0.000
322.35	-0.000
322.56	-0.000
322.77	-0.000
322.98	-0.000
323.19	-0.000
323.40	-0.000
323.61	-0.000
323.82	-0.000
324.03	-0.000
324.24	-0.000
324.45	-0.000
324.66	-0.000
324.87	-0.000
325.08	-0.000
325.29	-0.000
325.50	-0.000
325.71	-0.000
325.92	-0.000
326.13	-0.000
326.34	-0.000
326.55	-0.000
326.76	-0.000
326.97	-0.000
327.18	-0.000
327.39	-0.000
327.60	-0.000
327.80	-0.000
328.01	-0.000
328.22	-0.000
328.43	-0.000
328.64	-0.000
328.85	-0.000
329.06	-0.000
329.27	-0.000
329.48	-0.000
329.69	-0.000
329.90	-0.000
330.11	-0.000
330.32	-0.000
330.53	-0.000
330.74	-0.000
330.95	-0.000
331.16	-0.000
331.37	-0.000
331.58	-0.000
331.79	-0.000
332.00	-0.000
332.21	-0.000
332.42	-0.000
332.63	-0.000
332.83	-0.000
333.04	-0.000
333.25	-0.000
333.46	-0.000
333.67	-0.000
333.88	-0.000
334.09	-0.000
334.30	-0.000
334.51	-0.000
334.72	-0.000
334.93	-0.000
335.14	-0.000
335.35	-0.000
335.56	-0.000
335.77	-0.000
335.98	-0.000
336.18	-0.000
336.39	-0.000
336.60	-0.000
336.81	-0.000
337.02	-0.000
337.23	-0.000
337.44	-0.000
337.65	-0.000
337.86	-0.000
338.07	-0.000
338.28	-0.000
338.49	-0.000
338.70	-0.000
338.91	-0.000
339.11	-0.000
339.32	-0.000
339.53	-0.000
339.74	-0.000
339.95	-0.000
340.16	-0.000
340.37	-0.000
340.58	-0.000
340.79	-0.000
341.00	-0.000
341.21	-0.000
341.41	-0.000
341.62	-0.000
341.83	-0.000
342.04	-0.000
342.25	-0.000
342.46	-0.000
342.67	-0.000
342.88	-0.000
343.09	-0.000
343.30	-0.000
343.50	-0.000
343.71	-0.000
343.92	-0.000
344.13	-0.000
344.34	-0.000
344.55	-0.000
344.76	-0.000
344.97	-0.000
345.18	-0.000
345.38	-0.000
345.59	-0.000
345.80	-0.000
346.01	-0.000
346.22	-0.000
346.43	-0.000
346.64	-0.000
346.85	-0.000
347.06	-0.000
347.26	-0.000
347.47	-0.000
347.68	-0.000
347.89	-0.000
348.10	-0.000
348.31	-0.000
348.52	-0.000
348.73	-0.000
348.93	-0.000
349.14	-0.000
349.35	-0.000
349.56	-0.000
349.77	-0.000
349.98	-0.000
350.19	-0.000
350.39	-0.000
350.60	-0.000
350.81	-0.000
351.02	-0.000
351.23	-0.000
351.44	-0.000
351.65	-0.000
351.86	-0.000
352.06	-0.000
352.27	-0.000
352.48	-0.000
352.69	-0.000
352.90	-0.000
353.11	3.937
353.31	-0.000
353.52	-0.000
353.73	3.656
353.94	-0.000
354.15	-0.000
354.36	-0.000
354.57	3.365
354.77	-0.000
354.98	-0.000
355.19	-0.000
355.40	-0.000
355.61	-0.000
355.82	-0.000
356.02	-0.000
356.23	-0.000
356.44	-0.000
356.65	-0.000
356.86	-0.000
357.07	-0.000
357.27	-0.000
357.48	-0.000
357.69	-0.000
357.90	2.568
358.11	2.442
358.32	2.576
358.52	2.775
358.73	2.380
358.94	2.458
359.15	2.716
359.36	2.676
359.56	2.529
359.77	2.440
359.98	2.769
360.19	2.759
360.40	2.653
360.61	2.860
360.81	2.735
361.02	2.825
361.23	2.454
361.44	2.408
361.65	2.436
361.85	2.421
362.06	2.424
362.27	2.578
362.48	2.563
362.69	2.655
362.89	2.402
363.10	2.516
363.31	2.719
363.52	3.291
363.73	2.725
363.93	2.780
364.14	2.912
364.35	2.949
364.56	2.402
364.77	2.454
364.97	2.512
365.18	2.508
365.39	2.357
365.60	2.269
365.81	2.259
366.01	2.262
366.22	2.194
366.43	2.173
366.64	2.199
366.84	2.354
367.05	2.318
367.26	2.309
367.47	2.386
367.68	2.361
367.88	2.338
368.09	2.269
368.30	2.313
368.51	2.340
368.71	2.344
368.92	2.587
369.13	2.453
369.34	2.438
369.55	2.480
369.75	2.437
369.96	2.795
370.17	2.767
370.38	2.707
370.58	2.725
370.79	3.219
371.00	3.018
371.21	2.448
371.41	2.814
371.62	3.202
371.83	2.713
372.04	2.623
372.24	2.376
372.45	2.367
372.66	2.362
372.87	2.322
373.07	2.233
373.28	2.254
373.49	2.357
373.70	2.120
373.90	2.098
374.11	2.306
374.32	2.293
374.53	2.283
374.73	2.350
374.94	2.407
375.15	2.387
375.36	2.329
375.56	2.856
375.77	2.742
375.98	2.733
376.19	2.654
376.39	2.353
376.60	2.466
376.81	2.469
377.02	2.391
377.22	2.361
377.43	2.351
377.64	2.381
377.84	2.139
378.05	2.248
378.26	2.462
378.47	2.437
378.67	2.357
378.88	2.309
379.09	2.288
379.30	2.275
379.50	2.244
379.71	2.272
379.92	2.315
380.12	2.303
380.33	2.145
380.54	2.065
380.75	2.200
380.95	2.197
381.16	2.162
381.37	2.177
381.57	2.228
381.78	2.226
381.99	2.254
382.20	2.252
382.40	2.338
382.61	2.345
382.82	2.287
383.02	2.136
383.23	2.209
383.44	2.221
383.64	2.222
383.85	2.270
384.06	2.354
384.27	2.287
384.47	2.267
384.68	2.247
384.89	2.396
385.09	2.380
385.30	2.358
385.51	2.330
385.71	2.401
385.92	2.400
386.13	2.380
386.33	2.513
386.54	2.517
386.75	2.462
386.95	2.371
387.16	2.240
387.37	2.283
387.58	2.284
387.78	2.219
387.99	2.165
388.20	2.194
388.40	2.138
388.61	2.045
388.82	2.125
389.02	2.146
389.23	2.139
389.44	2.123
389.64	2.128
389.85	2.467
390.06	2.473
390.26	2.534
390.47	2.484
390.68	2.562
390.88	2.525
391.09	2.330
391.30	2.344
391.50	2.336
391.71	2.321
391.92	2.253
392.12	2.058
392.33	2.063
392.53	2.047
392.74	2.066
392.95	2.044
393.15	2.070
393.36	2.108
393.57	2.088
393.77	2.134
393.98	2.152
394.19	2.151
394.39	2.142
394.60	2.158
394.81	2.194
395.01	2.148
395.22	2.125
395.43	2.126
395.63	2.222
395.84	2.218
396.04	2.167
396.25	2.199
396.46	2.224
396.66	2.177
396.87	2.129
397.08	2.089
397.28	2.126
397.49	2.147
397.69	2.105
397.90	2.000
398.11	2.007
398.31	2.002
398.52	1.951
398.73	1.987
398.93	1.971
399.14	1.961
399.34	1.952
399.55	1.963
399.76	1.961
399.96	1.966
400.17	1.967
400.37	1.956
400.58	2.073
400.79	2.109
400.99	2.038
401.20	2.149
401.41	2.178
401.61	2.174
401.82	2.358
402.02	2.362
402.23	2.394
402.44	2.368
402.64	2.361
402.85	2.165
403.05	2.131
403.26	2.123
403.47	2.012
403.67	2.004
403.88	2.009
404.08	1.904
404.29	1.883
404.50	1.880
404.70	1.878
404.91	1.868
405.11	1.845
405.32	1.852
405.52	1.850
405.73	1.851
405.94	1.844
406.14	1.880
406.35	1.900
406.55	1.897
406.76	1.868
406.97	1.876
407.17	1.909
407.38	1.911
407.58	1.901
407.79	1.929
407.99	1.954
408.20	1.953
408.41	1.894
408.61	1.873
408.82	1.876
409.02	1.882
409.23	1.864
409.43	1.846
409.64	1.848
409.84	1.844
410.05	1.816
410.26	1.800
410.46	1.798
410.67	1.804
410.87	1.827
411.08	1.845
411.28	1.847
411.49	1.868
411.69	1.844
411.90	1.870
412.11	1.879
412.31	1.891
412.52	1.876
412.72	1.880
412.93	1.877
413.13	1.868
413.34	1.838
413.54	1.863
413.75	1.886
413.95	1.888
414.16	1.851
414.37	1.886
414.57	1.884
414.78	1.913
414.98	1.911
415.19	1.926
415.39	1.872
415.60	1.896
415.80	1.885
416.01	1.850
416.21	1.857
416.42	1.859
416.62	1.807
416.83	1.805
417.03	1.793
417.24	1.785
417.44	1.765
417.65	1.763
417.86	1.761
418.06	1.737
418.27	1.725
418.47	1.745
418.68	1.742
418.88	1.742
419.09	1.732
419.29	1.741
419.50	1.741
419.70	1.740
419.91	1.736
420.11	1.719
420.32	1.737
420.52	1.736
420.73	1.730
420.93	1.738
421.14	1.759
421.34	1.756
421.55	1.740
421.75	1.739
421.96	1.745
422.16	1.744
422.37	1.736
422.57	1.718
422.78	1.730
422.98	1.705
423.19	1.698
423.39	1.679
423.60	1.710
423.80	1.710
424.01	1.702
424.21	1.728
424.42	1.732
424.62	1.732
424.83	1.729
425.03	1.725
425.23	1.731
425.44	1.724
425.64	1.736
425.85	1.718
426.05	1.721
426.26	1.724
426.46	1.690
426.67	1.687
426.87	1.727
427.08	1.726
427.28	1.715
427.49	1.723
427.69	1.726
427.90	1.712
428.10	1.693
428.31	1.695
428.51	1.707
428.71	1.703
428.92	1.714
429.12	1.687
429.33	1.688
429.53	1.727
429.74	1.784
429.94	1.789
430.15	1.780
430.35	1.776
430.56	1.755
430.76	1.747
430.96	1.755
431.17	1.733
431.37	1.720
431.58	1.712
431.78	1.677
431.99	1.619
432.19	1.644
432.40	1.662
432.60	1.668
432.80	1.692
433.01	1.682
433.21	1.680
433.42	1.688
433.62	1.689
433.83	1.688
434.03	1.714
434.23	1.732
434.44	1.714
434.64	1.695
434.85	1.740
435.05	1.750
435.26	1.748
435.46	1.742
435.66	1.743
435.87	1.739
436.07	1.740
436.28	1.705
436.48	1.689
436.69	1.684
436.89	1.686
437.09	1.635
437.30	1.625
437.50	1.628
437.71	1.745
437.91	1.742
438.11	1.756
438.32	1.791
438.52	1.791
438.73	1.784
438.93	1.770
439.13	1.770
439.34	1.811
439.54	1.786
439.75	1.786
439.95	1.678
440.15	1.722
440.36	1.709
440.56	1.689
440.77	1.699
440.97	1.703
441.17	1.694
441.38	1.702
441.58	1.681
441.79	1.677
441.99	1.671
442.19	1.654
442.40	1.625
442.60	1.623
442.81	1.612
443.01	1.610
443.21	1.608
443.42	1.607
443.62	1.597
443.82	1.595
444.03	1.605
444.23	1.605
444.44	1.611
444.64	1.610
444.84	1.625
445.05	1.627
445.25	1.616
445.45	1.618
445.66	1.629
445.86	1.628
446.06	1.641
446.27	1.633
446.47	1.653
446.68	1.639
446.88	1.628
447.08	1.619
447.29	1.625
447.49	1.627
447.69	1.623
447.90	1.617
448.10	1.636
448.30	1.619
448.51	1.634
448.71	1.620
448.91	1.631
449.12	1.629
449.32	1.647
449.52	1.644
449.73	1.671
449.93	1.667
450.14	1.679
450.34	1.673
450.54	1.687
450.75	1.667
450.95	1.661
451.15	1.662
451.36	1.682
451.56	1.658
451.76	1.654
451.97	1.637
452.17	1.640
452.37	1.624
452.58	1.611
452.78	1.606
452.98	1.622
453.19	1.626
453.39	1.632
453.59	1.619
453.79	1.618
454.00	1.622
454.20	1.614
454.40	1.617
454.61	1.633
454.81	1.633
455.01	1.629
455.22	1.636
455.42	1.642
455.62	1.627
