SpectraSuite Data File
++++++++++++++++++++++++++++++++++++
Date: Fri Jun 19 14:57:38 CEST 2015
User: introlabs
Dark Spectrum Present: Yes
Reference Spectrum Present: Yes
Number of Sampled Component Spectra: 1
Spectrometers: USB4H08886
Integration Time (usec): 745692 (USB4H08886)
Spectra Averaged: 5 (USB4H08886)
Boxcar Smoothing: 5 (USB4H08886)
Correct for Electrical Dark: Yes (USB4H08886)
Strobe/Lamp Enabled: No (USB4H08886)
Correct for Detector Non-linearity: Yes (USB4H08886)
Correct for Stray Light: Yes (USB4H08886)
Number of Pixels in Processed Spectrum: 3648
>>>>>Begin Processed Spectral Data<<<<<
178.14	-0.000
178.36	-0.000
178.57	-0.000
178.79	-0.000
179.01	-0.000
179.22	-0.000
179.44	-0.000
179.65	-0.000
179.87	-0.000
180.08	-0.000
180.30	-0.000
180.52	-0.000
180.73	-0.000
180.95	-0.000
181.16	-0.000
181.38	-0.000
181.59	-0.000
181.81	-0.000
182.03	-0.000
182.24	-0.000
182.46	-0.000
182.67	-0.000
182.89	-0.000
183.10	-0.000
183.32	-0.000
183.54	-0.000
183.75	-0.000
183.97	-0.000
184.18	-0.000
184.40	-0.000
184.61	-0.000
184.83	-0.000
185.04	-0.000
185.26	-0.000
185.48	-0.000
185.69	-0.000
185.91	-0.000
186.12	-0.000
186.34	-0.000
186.55	-0.000
186.77	-0.000
186.98	-0.000
187.20	-0.000
187.42	-0.000
187.63	-0.000
187.85	-0.000
188.06	-0.000
188.28	-0.000
188.49	-0.000
188.71	-0.000
188.92	-0.000
189.14	-0.000
189.36	-0.000
189.57	-0.000
189.79	-0.000
190.00	-0.000
190.22	-0.000
190.43	-0.000
190.65	-0.000
190.86	-0.000
191.08	-0.000
191.29	-0.000
191.51	-0.000
191.72	-0.000
191.94	-0.000
192.16	-0.000
192.37	-0.000
192.59	-0.000
192.80	-0.000
193.02	-0.000
193.23	-0.000
193.45	-0.000
193.66	-0.000
193.88	-0.000
194.09	-0.000
194.31	-0.000
194.52	-0.000
194.74	-0.000
194.95	-0.000
195.17	-0.000
195.38	-0.000
195.60	-0.000
195.81	-0.000
196.03	-0.000
196.25	-0.000
196.46	-0.000
196.68	-0.000
196.89	-0.000
197.11	-0.000
197.32	-0.000
197.54	-0.000
197.75	-0.000
197.97	-0.000
198.18	-0.000
198.40	-0.000
198.61	-0.000
198.83	-0.000
199.04	-0.000
199.26	-0.000
199.47	-0.000
199.69	-0.000
199.90	-0.000
200.12	-0.000
200.33	-0.000
200.55	-0.000
200.76	-0.000
200.98	-0.000
201.19	-0.000
201.41	-0.000
201.62	-0.000
201.84	-0.000
202.05	-0.000
202.27	-0.000
202.48	-0.000
202.70	-0.000
202.91	-0.000
203.13	-0.000
203.34	-0.000
203.56	-0.000
203.77	-0.000
203.99	-0.000
204.20	-0.000
204.42	-0.000
204.63	-0.000
204.85	-0.000
205.06	-0.000
205.28	-0.000
205.49	-0.000
205.71	-0.000
205.92	-0.000
206.14	-0.000
206.35	-0.000
206.56	-0.000
206.78	-0.000
206.99	-0.000
207.21	-0.000
207.42	-0.000
207.64	-0.000
207.85	-0.000
208.07	-0.000
208.28	-0.000
208.50	-0.000
208.71	-0.000
208.93	-0.000
209.14	-0.000
209.36	-0.000
209.57	-0.000
209.79	-0.000
210.00	-0.000
210.22	-0.000
210.43	-0.000
210.64	-0.000
210.86	-0.000
211.07	-0.000
211.29	-0.000
211.50	-0.000
211.72	-0.000
211.93	-0.000
212.15	-0.000
212.36	-0.000
212.58	-0.000
212.79	-0.000
213.01	-0.000
213.22	-0.000
213.43	-0.000
213.65	-0.000
213.86	-0.000
214.08	-0.000
214.29	-0.000
214.51	-0.000
214.72	-0.000
214.94	-0.000
215.15	-0.000
215.36	-0.000
215.58	-0.000
215.79	-0.000
216.01	-0.000
216.22	-0.000
216.44	-0.000
216.65	-0.000
216.87	-0.000
217.08	-0.000
217.29	-0.000
217.51	-0.000
217.72	-0.000
217.94	-0.000
218.15	-0.000
218.37	-0.000
218.58	-0.000
218.80	-0.000
219.01	-0.000
219.22	-0.000
219.44	-0.000
219.65	-0.000
219.87	-0.000
220.08	-0.000
220.30	-0.000
220.51	-0.000
220.72	-0.000
220.94	-0.000
221.15	-0.000
221.37	-0.000
221.58	-0.000
221.79	-0.000
222.01	-0.000
222.22	-0.000
222.44	-0.000
222.65	-0.000
222.87	-0.000
223.08	-0.000
223.29	-0.000
223.51	-0.000
223.72	-0.000
223.94	-0.000
224.15	-0.000
224.36	-0.000
224.58	-0.000
224.79	-0.000
225.01	-0.000
225.22	-0.000
225.44	-0.000
225.65	-0.000
225.86	-0.000
226.08	-0.000
226.29	-0.000
226.51	-0.000
226.72	-0.000
226.93	-0.000
227.15	-0.000
227.36	-0.000
227.58	-0.000
227.79	-0.000
228.00	-0.000
228.22	-0.000
228.43	-0.000
228.65	-0.000
228.86	-0.000
229.07	-0.000
229.29	-0.000
229.50	-0.000
229.72	-0.000
229.93	-0.000
230.14	-0.000
230.36	-0.000
230.57	-0.000
230.78	-0.000
231.00	-0.000
231.21	-0.000
231.43	-0.000
231.64	-0.000
231.85	-0.000
232.07	-0.000
232.28	-0.000
232.50	-0.000
232.71	-0.000
232.92	-0.000
233.14	-0.000
233.35	-0.000
233.56	-0.000
233.78	-0.000
233.99	-0.000
234.21	-0.000
234.42	-0.000
234.63	-0.000
234.85	-0.000
235.06	-0.000
235.27	-0.000
235.49	-0.000
235.70	-0.000
235.91	-0.000
236.13	-0.000
236.34	-0.000
236.56	-0.000
236.77	-0.000
236.98	-0.000
237.20	-0.000
237.41	-0.000
237.62	-0.000
237.84	-0.000
238.05	-0.000
238.26	-0.000
238.48	-0.000
238.69	-0.000
238.91	-0.000
239.12	-0.000
239.33	-0.000
239.55	-0.000
239.76	-0.000
239.97	-0.000
240.19	-0.000
240.40	-0.000
240.61	-0.000
240.83	-0.000
241.04	-0.000
241.25	-0.000
241.47	-0.000
241.68	-0.000
241.89	-0.000
242.11	-0.000
242.32	-0.000
242.53	-0.000
242.75	-0.000
242.96	-0.000
243.17	-0.000
243.39	-0.000
243.60	-0.000
243.81	-0.000
244.03	-0.000
244.24	-0.000
244.45	-0.000
244.67	-0.000
244.88	-0.000
245.09	-0.000
245.31	-0.000
245.52	-0.000
245.73	-0.000
245.95	-0.000
246.16	-0.000
246.37	-0.000
246.59	-0.000
246.80	-0.000
247.01	-0.000
247.23	-0.000
247.44	-0.000
247.65	-0.000
247.87	-0.000
248.08	-0.000
248.29	-0.000
248.51	-0.000
248.72	-0.000
248.93	-0.000
249.15	-0.000
249.36	-0.000
249.57	-0.000
249.78	-0.000
250.00	-0.000
250.21	-0.000
250.42	-0.000
250.64	-0.000
250.85	-0.000
251.06	-0.000
251.28	-0.000
251.49	-0.000
251.70	-0.000
251.92	-0.000
252.13	-0.000
252.34	-0.000
252.55	-0.000
252.77	-0.000
252.98	-0.000
253.19	-0.000
253.41	-0.000
253.62	-0.000
253.83	-0.000
254.05	-0.000
254.26	-0.000
254.47	-0.000
254.68	-0.000
254.90	-0.000
255.11	-0.000
255.32	-0.000
255.54	-0.000
255.75	-0.000
255.96	-0.000
256.17	-0.000
256.39	-0.000
256.60	-0.000
256.81	-0.000
257.03	-0.000
257.24	-0.000
257.45	-0.000
257.66	-0.000
257.88	-0.000
258.09	-0.000
258.30	-0.000
258.51	-0.000
258.73	-0.000
258.94	-0.000
259.15	-0.000
259.37	-0.000
259.58	-0.000
259.79	-0.000
260.00	-0.000
260.22	-0.000
260.43	-0.000
260.64	-0.000
260.85	-0.000
261.07	-0.000
261.28	-0.000
261.49	-0.000
261.71	-0.000
261.92	-0.000
262.13	-0.000
262.34	-0.000
262.56	-0.000
262.77	-0.000
262.98	-0.000
263.19	-0.000
263.41	-0.000
263.62	-0.000
263.83	-0.000
264.04	-0.000
264.26	-0.000
264.47	-0.000
264.68	-0.000
264.89	-0.000
265.11	-0.000
265.32	-0.000
265.53	-0.000
265.74	-0.000
265.96	-0.000
266.17	-0.000
266.38	-0.000
266.59	-0.000
266.81	-0.000
267.02	-0.000
267.23	-0.000
267.44	-0.000
267.65	-0.000
267.87	-0.000
268.08	-0.000
268.29	-0.000
268.50	-0.000
268.72	-0.000
268.93	-0.000
269.14	-0.000
269.35	-0.000
269.57	-0.000
269.78	-0.000
269.99	-0.000
270.20	-0.000
270.41	-0.000
270.63	-0.000
270.84	-0.000
271.05	-0.000
271.26	-0.000
271.48	-0.000
271.69	-0.000
271.90	-0.000
272.11	-0.000
272.32	-0.000
272.54	-0.000
272.75	-0.000
272.96	-0.000
273.17	-0.000
273.39	-0.000
273.60	-0.000
273.81	-0.000
274.02	-0.000
274.23	-0.000
274.45	-0.000
274.66	-0.000
274.87	-0.000
275.08	-0.000
275.29	-0.000
275.51	-0.000
275.72	-0.000
275.93	-0.000
276.14	-0.000
276.35	-0.000
276.57	-0.000
276.78	-0.000
276.99	-0.000
277.20	-0.000
277.41	-0.000
277.63	-0.000
277.84	-0.000
278.05	-0.000
278.26	-0.000
278.47	-0.000
278.69	-0.000
278.90	-0.000
279.11	-0.000
279.32	-0.000
279.53	-0.000
279.74	-0.000
279.96	-0.000
280.17	-0.000
280.38	-0.000
280.59	-0.000
280.80	-0.000
281.02	-0.000
281.23	-0.000
281.44	-0.000
281.65	-0.000
281.86	-0.000
282.07	-0.000
282.29	-0.000
282.50	-0.000
282.71	-0.000
282.92	-0.000
283.13	-0.000
283.35	-0.000
283.56	-0.000
283.77	-0.000
283.98	-0.000
284.19	-0.000
284.40	-0.000
284.62	-0.000
284.83	-0.000
285.04	-0.000
285.25	-0.000
285.46	-0.000
285.67	-0.000
285.88	-0.000
286.10	-0.000
286.31	-0.000
286.52	-0.000
286.73	-0.000
286.94	-0.000
287.15	-0.000
287.37	-0.000
287.58	-0.000
287.79	-0.000
288.00	-0.000
288.21	-0.000
288.42	-0.000
288.63	-0.000
288.85	-0.000
289.06	-0.000
289.27	-0.000
289.48	-0.000
289.69	-0.000
289.90	-0.000
290.11	-0.000
290.33	-0.000
290.54	-0.000
290.75	-0.000
290.96	-0.000
291.17	-0.000
291.38	-0.000
291.59	-0.000
291.81	-0.000
292.02	-0.000
292.23	-0.000
292.44	-0.000
292.65	-0.000
292.86	-0.000
293.07	-0.000
293.28	-0.000
293.50	-0.000
293.71	-0.000
293.92	-0.000
294.13	-0.000
294.34	-0.000
294.55	-0.000
294.76	-0.000
294.97	-0.000
295.19	-0.000
295.40	-0.000
295.61	-0.000
295.82	-0.000
296.03	-0.000
296.24	-0.000
296.45	2.459
296.66	1.907
296.87	1.940
297.09	2.059
297.30	2.423
297.51	1.833
297.72	1.779
297.93	1.881
298.14	1.851
298.35	1.784
298.56	1.763
298.77	1.930
298.99	1.894
299.20	1.863
299.41	1.833
299.62	1.770
299.83	1.751
300.04	1.685
300.25	1.686
300.46	1.727
300.67	1.696
300.88	1.624
301.10	1.625
301.31	1.707
301.52	1.626
301.73	1.562
301.94	1.566
302.15	1.589
302.36	1.532
302.57	1.462
302.78	1.473
302.99	1.519
303.20	1.545
303.41	1.448
303.63	1.427
303.84	1.434
304.05	1.434
304.26	1.371
304.47	1.374
304.68	1.379
304.89	1.364
305.10	1.321
305.31	1.307
305.52	1.354
305.73	1.349
305.94	1.309
306.15	1.302
306.37	1.321
306.58	1.326
306.79	1.296
307.00	1.319
307.21	1.366
307.42	1.355
307.63	1.319
307.84	1.280
308.05	1.316
308.26	1.316
308.47	1.292
308.68	1.289
308.89	1.288
309.10	1.284
309.31	1.241
309.52	1.233
309.73	1.249
309.95	1.244
310.16	1.214
310.37	1.203
310.58	1.221
310.79	1.220
311.00	1.217
311.21	1.221
311.42	1.220
311.63	1.213
311.84	1.192
312.05	1.191
312.26	1.214
312.47	1.225
312.68	1.202
312.89	1.185
313.10	1.191
313.31	1.162
313.52	1.161
313.73	1.164
313.94	1.169
314.15	1.153
314.36	1.129
314.57	1.121
314.78	1.111
314.99	1.106
315.21	1.094
315.42	1.100
315.63	1.113
315.84	1.090
316.05	1.076
316.26	1.084
316.47	1.102
316.68	1.098
316.89	1.079
317.10	1.099
317.31	1.102
317.52	1.104
317.73	1.081
317.94	1.082
318.15	1.125
318.36	1.124
318.57	1.107
318.78	1.096
318.99	1.134
319.20	1.131
319.41	1.096
319.62	1.098
319.83	1.113
320.04	1.108
320.25	1.094
320.46	1.059
320.67	1.063
320.88	1.057
321.09	1.042
321.30	1.026
321.51	1.042
321.72	1.042
321.93	1.025
322.14	1.017
322.35	1.044
322.56	1.046
322.77	1.034
322.98	1.045
323.19	1.055
323.40	1.063
323.61	1.040
323.82	1.033
324.03	1.036
324.24	1.033
324.45	1.019
324.66	0.999
324.87	0.995
325.08	0.995
325.29	0.976
325.50	0.969
325.71	0.974
325.92	0.981
326.13	0.968
326.34	0.969
326.55	0.978
326.76	0.977
326.97	0.968
327.18	0.962
327.39	0.987
327.60	0.988
327.80	0.990
328.01	0.987
328.22	0.987
328.43	0.992
328.64	0.980
328.85	0.984
329.06	0.986
329.27	0.986
329.48	0.981
329.69	0.962
329.90	0.973
330.11	0.965
330.32	0.958
330.53	0.951
330.74	0.950
330.95	0.949
331.16	0.932
331.37	0.941
331.58	0.940
331.79	0.940
332.00	0.931
332.21	0.923
332.42	0.926
332.63	0.918
332.83	0.914
333.04	0.916
333.25	0.929
333.46	0.929
333.67	0.915
333.88	0.917
334.09	0.927
334.30	0.924
334.51	0.916
334.72	0.912
334.93	0.915
335.14	0.914
335.35	0.908
335.56	0.902
335.77	0.911
335.98	0.910
336.18	0.904
336.39	0.896
336.60	0.899
336.81	0.897
337.02	0.896
337.23	0.900
337.44	0.902
337.65	0.902
337.86	0.892
338.07	0.886
338.28	0.890
338.49	0.889
338.70	0.882
338.91	0.890
339.11	0.897
339.32	0.893
339.53	0.882
339.74	0.879
339.95	0.876
340.16	0.874
340.37	0.867
340.58	0.865
340.79	0.869
341.00	0.868
341.21	0.857
341.41	0.857
341.62	0.858
341.83	0.858
342.04	0.852
342.25	0.864
342.46	0.868
342.67	0.866
342.88	0.859
343.09	0.858
343.30	0.865
343.50	0.867
343.71	0.859
343.92	0.856
344.13	0.860
344.34	0.859
344.55	0.843
344.76	0.842
344.97	0.846
345.18	0.846
345.38	0.843
345.59	0.837
345.80	0.837
346.01	0.834
346.22	0.832
346.43	0.827
346.64	0.837
346.85	0.835
347.06	0.829
347.26	0.829
347.47	0.831
347.68	0.825
347.89	0.821
348.10	0.817
348.31	0.824
348.52	0.822
348.73	0.819
348.93	0.815
349.14	0.819
349.35	0.818
349.56	0.813
349.77	0.809
349.98	0.815
350.19	0.812
350.39	0.806
350.60	0.803
350.81	0.819
351.02	0.818
351.23	0.814
351.44	0.815
351.65	0.818
351.86	0.815
352.06	0.812
352.27	0.812
352.48	0.813
352.69	0.813
352.90	0.807
353.11	0.794
353.31	0.802
353.52	0.798
353.73	0.790
353.94	0.792
354.15	0.797
354.36	0.797
354.57	0.789
354.77	0.792
354.98	0.791
355.19	0.790
355.40	0.789
355.61	0.794
355.82	0.798
356.02	0.797
356.23	0.790
356.44	0.792
356.65	0.796
356.86	0.796
357.07	0.789
357.27	0.793
357.48	0.796
357.69	0.791
357.90	0.776
358.11	0.773
358.32	0.776
358.52	0.779
358.73	0.769
358.94	0.770
359.15	0.776
359.36	0.777
359.56	0.773
359.77	0.769
359.98	0.776
360.19	0.776
360.40	0.773
360.61	0.774
360.81	0.773
361.02	0.774
361.23	0.765
361.44	0.763
361.65	0.762
361.85	0.762
362.06	0.759
362.27	0.761
362.48	0.761
362.69	0.763
362.89	0.757
363.10	0.759
363.31	0.763
363.52	0.766
363.73	0.761
363.93	0.762
364.14	0.762
364.35	0.764
364.56	0.754
364.77	0.756
364.97	0.758
365.18	0.758
365.39	0.753
365.60	0.750
365.81	0.751
366.01	0.751
366.22	0.747
366.43	0.747
366.64	0.748
366.84	0.754
367.05	0.751
367.26	0.750
367.47	0.751
367.68	0.751
367.88	0.748
368.09	0.745
368.30	0.747
368.51	0.746
368.71	0.746
368.92	0.750
369.13	0.748
369.34	0.747
369.55	0.747
369.75	0.747
369.96	0.754
370.17	0.754
370.38	0.751
370.58	0.751
370.79	0.756
371.00	0.755
371.21	0.746
371.41	0.751
371.62	0.755
371.83	0.751
372.04	0.748
372.24	0.741
372.45	0.741
372.66	0.742
372.87	0.738
373.07	0.736
373.28	0.736
373.49	0.739
373.70	0.731
373.90	0.730
374.11	0.739
374.32	0.738
374.53	0.737
374.73	0.739
374.94	0.740
375.15	0.741
375.36	0.738
375.56	0.747
375.77	0.746
375.98	0.747
376.19	0.744
376.39	0.738
376.60	0.742
376.81	0.743
377.02	0.740
377.22	0.740
377.43	0.740
377.64	0.740
377.84	0.731
378.05	0.736
378.26	0.742
378.47	0.741
378.67	0.738
378.88	0.734
379.09	0.735
379.30	0.736
379.50	0.734
379.71	0.736
379.92	0.739
380.12	0.738
380.33	0.730
380.54	0.726
380.75	0.733
380.95	0.733
381.16	0.732
381.37	0.732
381.57	0.732
381.78	0.732
381.99	0.731
382.20	0.732
382.40	0.735
382.61	0.735
382.82	0.732
383.02	0.725
383.23	0.727
383.44	0.727
383.64	0.726
383.85	0.728
384.06	0.731
384.27	0.729
384.47	0.727
384.68	0.728
384.89	0.733
385.09	0.732
385.30	0.732
385.51	0.731
385.71	0.734
385.92	0.735
386.13	0.734
386.33	0.736
386.54	0.738
386.75	0.737
386.95	0.733
387.16	0.729
387.37	0.732
387.58	0.732
387.78	0.730
387.99	0.728
388.20	0.729
388.40	0.726
388.61	0.722
388.82	0.725
389.02	0.727
389.23	0.727
389.44	0.725
389.64	0.725
389.85	0.736
390.06	0.737
390.26	0.737
390.47	0.737
390.68	0.739
390.88	0.737
391.09	0.733
391.30	0.732
391.50	0.732
391.71	0.732
391.92	0.729
392.12	0.721
392.33	0.722
392.53	0.722
392.74	0.722
392.95	0.720
393.15	0.723
393.36	0.725
393.57	0.723
393.77	0.727
393.98	0.728
394.19	0.728
394.39	0.727
394.60	0.729
394.81	0.732
395.01	0.730
395.22	0.728
395.43	0.728
395.63	0.733
395.84	0.735
396.04	0.731
396.25	0.734
396.46	0.735
396.66	0.733
396.87	0.730
397.08	0.728
397.28	0.730
397.49	0.731
397.69	0.728
397.90	0.723
398.11	0.724
398.31	0.724
398.52	0.721
398.73	0.722
398.93	0.721
399.14	0.720
399.34	0.719
399.55	0.720
399.76	0.720
399.96	0.720
400.17	0.719
400.37	0.717
400.58	0.724
400.79	0.726
400.99	0.723
401.20	0.729
401.41	0.732
401.61	0.733
401.82	0.738
402.02	0.738
402.23	0.739
402.44	0.739
402.64	0.739
402.85	0.734
403.05	0.732
403.26	0.732
403.47	0.725
403.67	0.723
403.88	0.724
404.08	0.718
404.29	0.717
404.50	0.716
404.70	0.717
404.91	0.716
405.11	0.713
405.32	0.713
405.52	0.713
405.73	0.713
405.94	0.711
406.14	0.715
406.35	0.717
406.55	0.716
406.76	0.713
406.97	0.714
407.17	0.717
407.38	0.717
407.58	0.716
407.79	0.718
407.99	0.720
408.20	0.722
408.41	0.717
408.61	0.715
408.82	0.717
409.02	0.716
409.23	0.715
409.43	0.713
409.64	0.714
409.84	0.714
410.05	0.711
410.26	0.710
410.46	0.710
410.67	0.709
410.87	0.710
411.08	0.712
411.28	0.713
411.49	0.714
411.69	0.711
411.90	0.712
412.11	0.714
412.31	0.714
412.52	0.712
412.72	0.713
412.93	0.714
413.13	0.713
413.34	0.710
413.54	0.711
413.75	0.713
413.95	0.713
414.16	0.710
414.37	0.713
414.57	0.714
414.78	0.717
414.98	0.714
415.19	0.716
415.39	0.713
415.60	0.714
415.80	0.714
416.01	0.712
416.21	0.714
416.42	0.714
416.62	0.709
416.83	0.709
417.03	0.708
417.24	0.708
417.44	0.706
417.65	0.706
417.86	0.706
418.06	0.704
418.27	0.703
418.47	0.704
418.68	0.705
418.88	0.706
419.09	0.704
419.29	0.705
419.50	0.705
419.70	0.705
419.91	0.704
420.11	0.701
420.32	0.704
420.52	0.703
420.73	0.702
420.93	0.703
421.14	0.704
421.34	0.703
421.55	0.700
421.75	0.700
421.96	0.701
422.16	0.700
422.37	0.699
422.57	0.696
422.78	0.697
422.98	0.694
423.19	0.692
423.39	0.690
423.60	0.694
423.80	0.695
424.01	0.694
424.21	0.696
424.42	0.697
424.62	0.697
424.83	0.697
425.03	0.698
425.23	0.700
425.44	0.699
425.64	0.700
425.85	0.698
426.05	0.698
426.26	0.699
426.46	0.695
426.67	0.695
426.87	0.700
427.08	0.700
427.28	0.697
427.49	0.698
427.69	0.698
427.90	0.697
428.10	0.695
428.31	0.695
428.51	0.696
428.71	0.696
428.92	0.697
429.12	0.693
429.33	0.694
429.53	0.698
429.74	0.702
429.94	0.703
430.15	0.703
430.35	0.702
430.56	0.699
430.76	0.698
430.96	0.699
431.17	0.697
431.37	0.694
431.58	0.692
431.78	0.689
431.99	0.682
432.19	0.684
432.40	0.685
432.60	0.686
432.80	0.689
433.01	0.687
433.21	0.687
433.42	0.688
433.62	0.688
433.83	0.688
434.03	0.690
434.23	0.693
434.44	0.692
434.64	0.689
434.85	0.694
435.05	0.695
435.26	0.695
435.46	0.694
435.66	0.694
435.87	0.694
436.07	0.694
436.28	0.691
436.48	0.688
436.69	0.687
436.89	0.687
437.09	0.681
437.30	0.680
437.50	0.680
437.71	0.692
437.91	0.691
438.11	0.692
438.32	0.696
438.52	0.696
438.73	0.695
438.93	0.693
439.13	0.694
439.34	0.697
439.54	0.694
439.75	0.694
439.95	0.684
440.15	0.689
440.36	0.687
440.56	0.684
440.77	0.685
440.97	0.685
441.17	0.684
441.38	0.685
441.58	0.682
441.79	0.682
441.99	0.681
442.19	0.679
442.40	0.677
442.60	0.676
442.81	0.674
443.01	0.674
443.21	0.675
443.42	0.674
443.62	0.673
443.82	0.673
444.03	0.674
444.23	0.674
444.44	0.675
444.64	0.673
444.84	0.675
445.05	0.674
445.25	0.672
445.45	0.672
445.66	0.674
445.86	0.673
446.06	0.675
446.27	0.674
446.47	0.677
446.68	0.675
446.88	0.674
447.08	0.673
447.29	0.675
447.49	0.675
447.69	0.675
447.90	0.673
448.10	0.677
448.30	0.674
448.51	0.675
448.71	0.672
448.91	0.674
449.12	0.674
449.32	0.675
449.52	0.674
449.73	0.677
449.93	0.676
450.14	0.676
450.34	0.675
450.54	0.677
450.75	0.675
450.95	0.674
451.15	0.673
451.36	0.676
451.56	0.673
451.76	0.672
451.97	0.668
452.17	0.669
452.37	0.667
452.58	0.665
452.78	0.665
452.98	0.667
453.19	0.667
453.39	0.667
453.59	0.666
453.79	0.666
454.00	0.667
454.20	0.666
454.40	0.667
454.61	0.669
454.81	0.670
455.01	0.667
455.22	0.667
455.42	0.669
455.62	0.667
455.83	0.667
456.03	0.670
456.23	0.671
456.44	0.672
456.64	0.670
456.84	0.670
457.04	0.671
457.25	0.671
457.45	0.667
457.65	0.666
457.86	0.667
458.06	0.666
458.26	0.662
458.47	0.661
458.67	0.662
458.87	0.662
459.07	0.659
459.28	0.661
459.48	0.663
459.68	0.664
459.89	0.663
