SpectraSuite Data File
++++++++++++++++++++++++++++++++++++
Date: Fri Jun 19 13:27:23 CEST 2015
User: introlabs
Dark Spectrum Present: Yes
Reference Spectrum Present: Yes
Number of Sampled Component Spectra: 1
Spectrometers: USB4H08886
Integration Time (usec): 745692 (USB4H08886)
Spectra Averaged: 5 (USB4H08886)
Boxcar Smoothing: 5 (USB4H08886)
Correct for Electrical Dark: Yes (USB4H08886)
Strobe/Lamp Enabled: No (USB4H08886)
Correct for Detector Non-linearity: Yes (USB4H08886)
Correct for Stray Light: Yes (USB4H08886)
Number of Pixels in Processed Spectrum: 3648
>>>>>Begin Processed Spectral Data<<<<<
178.14	-0.000
178.36	-0.000
178.57	-0.000
178.79	-0.000
179.01	-0.000
179.22	-0.000
179.44	-0.000
179.65	-0.000
179.87	-0.000
180.08	-0.000
180.30	-0.000
180.52	-0.000
180.73	-0.000
180.95	-0.000
181.16	-0.000
181.38	-0.000
181.59	-0.000
181.81	-0.000
182.03	-0.000
182.24	-0.000
182.46	-0.000
182.67	-0.000
182.89	-0.000
183.10	-0.000
183.32	-0.000
183.54	-0.000
183.75	-0.000
183.97	-0.000
184.18	-0.000
184.40	-0.000
184.61	-0.000
184.83	-0.000
185.04	-0.000
185.26	-0.000
185.48	-0.000
185.69	-0.000
185.91	-0.000
186.12	-0.000
186.34	-0.000
186.55	-0.000
186.77	-0.000
186.98	-0.000
187.20	-0.000
187.42	-0.000
187.63	-0.000
187.85	-0.000
188.06	-0.000
188.28	-0.000
188.49	-0.000
188.71	-0.000
188.92	-0.000
189.14	-0.000
189.36	-0.000
189.57	-0.000
189.79	-0.000
190.00	-0.000
190.22	-0.000
190.43	-0.000
190.65	-0.000
190.86	-0.000
191.08	-0.000
191.29	-0.000
191.51	-0.000
191.72	-0.000
191.94	-0.000
192.16	-0.000
192.37	-0.000
192.59	-0.000
192.80	-0.000
193.02	-0.000
193.23	-0.000
193.45	-0.000
193.66	-0.000
193.88	-0.000
194.09	-0.000
194.31	-0.000
194.52	-0.000
194.74	-0.000
194.95	-0.000
195.17	-0.000
195.38	-0.000
195.60	-0.000
195.81	-0.000
196.03	-0.000
196.25	-0.000
196.46	-0.000
196.68	-0.000
196.89	-0.000
197.11	-0.000
197.32	-0.000
197.54	-0.000
197.75	-0.000
197.97	-0.000
198.18	-0.000
198.40	-0.000
198.61	-0.000
198.83	-0.000
199.04	-0.000
199.26	-0.000
199.47	-0.000
199.69	-0.000
199.90	-0.000
200.12	-0.000
200.33	-0.000
200.55	-0.000
200.76	-0.000
200.98	-0.000
201.19	-0.000
201.41	-0.000
201.62	-0.000
201.84	-0.000
202.05	-0.000
202.27	-0.000
202.48	-0.000
202.70	-0.000
202.91	-0.000
203.13	-0.000
203.34	-0.000
203.56	-0.000
203.77	-0.000
203.99	-0.000
204.20	-0.000
204.42	-0.000
204.63	-0.000
204.85	-0.000
205.06	-0.000
205.28	-0.000
205.49	-0.000
205.71	-0.000
205.92	-0.000
206.14	-0.000
206.35	-0.000
206.56	-0.000
206.78	-0.000
206.99	-0.000
207.21	-0.000
207.42	-0.000
207.64	-0.000
207.85	-0.000
208.07	-0.000
208.28	-0.000
208.50	-0.000
208.71	-0.000
208.93	-0.000
209.14	-0.000
209.36	-0.000
209.57	-0.000
209.79	-0.000
210.00	-0.000
210.22	-0.000
210.43	-0.000
210.64	-0.000
210.86	-0.000
211.07	-0.000
211.29	-0.000
211.50	-0.000
211.72	-0.000
211.93	-0.000
212.15	-0.000
212.36	-0.000
212.58	-0.000
212.79	-0.000
213.01	-0.000
213.22	-0.000
213.43	-0.000
213.65	-0.000
213.86	-0.000
214.08	-0.000
214.29	-0.000
214.51	-0.000
214.72	-0.000
214.94	-0.000
215.15	-0.000
215.36	-0.000
215.58	-0.000
215.79	-0.000
216.01	-0.000
216.22	-0.000
216.44	-0.000
216.65	-0.000
216.87	-0.000
217.08	-0.000
217.29	-0.000
217.51	-0.000
217.72	-0.000
217.94	-0.000
218.15	-0.000
218.37	-0.000
218.58	-0.000
218.80	-0.000
219.01	-0.000
219.22	-0.000
219.44	-0.000
219.65	-0.000
219.87	-0.000
220.08	-0.000
220.30	-0.000
220.51	-0.000
220.72	-0.000
220.94	-0.000
221.15	-0.000
221.37	-0.000
221.58	-0.000
221.79	-0.000
222.01	-0.000
222.22	-0.000
222.44	-0.000
222.65	-0.000
222.87	-0.000
223.08	-0.000
223.29	-0.000
223.51	-0.000
223.72	-0.000
223.94	-0.000
224.15	-0.000
224.36	-0.000
224.58	-0.000
224.79	-0.000
225.01	-0.000
225.22	-0.000
225.44	-0.000
225.65	-0.000
225.86	-0.000
226.08	-0.000
226.29	-0.000
226.51	-0.000
226.72	-0.000
226.93	-0.000
227.15	-0.000
227.36	-0.000
227.58	-0.000
227.79	-0.000
228.00	-0.000
228.22	-0.000
228.43	-0.000
228.65	-0.000
228.86	-0.000
229.07	-0.000
229.29	-0.000
229.50	-0.000
229.72	-0.000
229.93	-0.000
230.14	-0.000
230.36	-0.000
230.57	-0.000
230.78	-0.000
231.00	-0.000
231.21	-0.000
231.43	-0.000
231.64	-0.000
231.85	-0.000
232.07	-0.000
232.28	-0.000
232.50	-0.000
232.71	-0.000
232.92	-0.000
233.14	-0.000
233.35	-0.000
233.56	-0.000
233.78	-0.000
233.99	-0.000
234.21	-0.000
234.42	-0.000
234.63	-0.000
234.85	-0.000
235.06	-0.000
235.27	-0.000
235.49	-0.000
235.70	-0.000
235.91	-0.000
236.13	-0.000
236.34	-0.000
236.56	-0.000
236.77	-0.000
236.98	-0.000
237.20	-0.000
237.41	-0.000
237.62	-0.000
237.84	-0.000
238.05	-0.000
238.26	-0.000
238.48	-0.000
238.69	-0.000
238.91	-0.000
239.12	-0.000
239.33	-0.000
239.55	-0.000
239.76	-0.000
239.97	-0.000
240.19	-0.000
240.40	-0.000
240.61	-0.000
240.83	-0.000
241.04	-0.000
241.25	-0.000
241.47	-0.000
241.68	-0.000
241.89	-0.000
242.11	-0.000
242.32	-0.000
242.53	-0.000
242.75	-0.000
242.96	-0.000
243.17	-0.000
243.39	-0.000
243.60	-0.000
243.81	-0.000
244.03	-0.000
244.24	-0.000
244.45	-0.000
244.67	-0.000
244.88	-0.000
245.09	-0.000
245.31	-0.000
245.52	-0.000
245.73	-0.000
245.95	-0.000
246.16	-0.000
246.37	-0.000
246.59	-0.000
246.80	-0.000
247.01	-0.000
247.23	-0.000
247.44	-0.000
247.65	-0.000
247.87	-0.000
248.08	-0.000
248.29	-0.000
248.51	-0.000
248.72	-0.000
248.93	-0.000
249.15	-0.000
249.36	-0.000
249.57	-0.000
249.78	-0.000
250.00	-0.000
250.21	-0.000
250.42	-0.000
250.64	-0.000
250.85	-0.000
251.06	-0.000
251.28	-0.000
251.49	-0.000
251.70	-0.000
251.92	-0.000
252.13	-0.000
252.34	-0.000
252.55	-0.000
252.77	-0.000
252.98	-0.000
253.19	-0.000
253.41	-0.000
253.62	-0.000
253.83	-0.000
254.05	-0.000
254.26	-0.000
254.47	-0.000
254.68	-0.000
254.90	-0.000
255.11	-0.000
255.32	-0.000
255.54	-0.000
255.75	-0.000
255.96	-0.000
256.17	-0.000
256.39	-0.000
256.60	-0.000
256.81	-0.000
257.03	-0.000
257.24	-0.000
257.45	-0.000
257.66	-0.000
257.88	-0.000
258.09	-0.000
258.30	-0.000
258.51	-0.000
258.73	-0.000
258.94	-0.000
259.15	-0.000
259.37	-0.000
259.58	-0.000
259.79	-0.000
260.00	-0.000
260.22	-0.000
260.43	-0.000
260.64	-0.000
260.85	-0.000
261.07	-0.000
261.28	-0.000
261.49	-0.000
261.71	-0.000
261.92	-0.000
262.13	-0.000
262.34	-0.000
262.56	-0.000
262.77	-0.000
262.98	-0.000
263.19	-0.000
263.41	-0.000
263.62	-0.000
263.83	-0.000
264.04	-0.000
264.26	-0.000
264.47	-0.000
264.68	-0.000
264.89	-0.000
265.11	-0.000
265.32	-0.000
265.53	-0.000
265.74	-0.000
265.96	-0.000
266.17	-0.000
266.38	-0.000
266.59	-0.000
266.81	-0.000
267.02	-0.000
267.23	-0.000
267.44	-0.000
267.65	-0.000
267.87	-0.000
268.08	-0.000
268.29	-0.000
268.50	-0.000
268.72	-0.000
268.93	-0.000
269.14	-0.000
269.35	-0.000
269.57	-0.000
269.78	-0.000
269.99	-0.000
270.20	-0.000
270.41	-0.000
270.63	-0.000
270.84	-0.000
271.05	-0.000
271.26	-0.000
271.48	-0.000
271.69	-0.000
271.90	-0.000
272.11	-0.000
272.32	-0.000
272.54	-0.000
272.75	-0.000
272.96	-0.000
273.17	-0.000
273.39	-0.000
273.60	-0.000
273.81	-0.000
274.02	-0.000
274.23	-0.000
274.45	-0.000
274.66	-0.000
274.87	-0.000
275.08	-0.000
275.29	-0.000
275.51	-0.000
275.72	-0.000
275.93	-0.000
276.14	-0.000
276.35	-0.000
276.57	-0.000
276.78	-0.000
276.99	-0.000
277.20	-0.000
277.41	-0.000
277.63	-0.000
277.84	-0.000
278.05	-0.000
278.26	-0.000
278.47	-0.000
278.69	-0.000
278.90	-0.000
279.11	-0.000
279.32	-0.000
279.53	-0.000
279.74	-0.000
279.96	-0.000
280.17	-0.000
280.38	-0.000
280.59	-0.000
280.80	-0.000
281.02	-0.000
281.23	-0.000
281.44	-0.000
281.65	-0.000
281.86	-0.000
282.07	-0.000
282.29	-0.000
282.50	-0.000
282.71	-0.000
282.92	-0.000
283.13	-0.000
283.35	-0.000
283.56	-0.000
283.77	-0.000
283.98	-0.000
284.19	-0.000
284.40	-0.000
284.62	-0.000
284.83	-0.000
285.04	-0.000
285.25	-0.000
285.46	-0.000
285.67	-0.000
285.88	-0.000
286.10	-0.000
286.31	-0.000
286.52	-0.000
286.73	-0.000
286.94	-0.000
287.15	-0.000
287.37	-0.000
287.58	-0.000
287.79	-0.000
288.00	-0.000
288.21	-0.000
288.42	-0.000
288.63	-0.000
288.85	-0.000
289.06	-0.000
289.27	-0.000
289.48	-0.000
289.69	-0.000
289.90	-0.000
290.11	-0.000
290.33	-0.000
290.54	-0.000
290.75	-0.000
290.96	-0.000
291.17	-0.000
291.38	-0.000
291.59	-0.000
291.81	-0.000
292.02	-0.000
292.23	-0.000
292.44	-0.000
292.65	-0.000
292.86	-0.000
293.07	-0.000
293.28	-0.000
293.50	-0.000
293.71	-0.000
293.92	-0.000
294.13	-0.000
294.34	-0.000
294.55	-0.000
294.76	-0.000
294.97	-0.000
295.19	-0.000
295.40	-0.000
295.61	-0.000
295.82	-0.000
296.03	-0.000
296.24	-0.000
296.45	-0.000
296.66	3.110
296.87	-0.000
297.09	-0.000
297.30	-0.000
297.51	2.317
297.72	2.178
297.93	2.663
298.14	2.394
298.35	2.225
298.56	2.161
298.77	2.849
298.99	2.524
299.20	2.335
299.41	2.247
299.62	2.123
299.83	2.099
300.04	1.916
300.25	1.881
300.46	1.992
300.67	1.922
300.88	1.816
301.10	1.828
301.31	1.985
301.52	1.840
301.73	1.733
301.94	1.738
302.15	1.758
302.36	1.674
302.57	1.575
302.78	1.582
302.99	1.641
303.20	1.651
303.41	1.516
303.63	1.489
303.84	1.503
304.05	1.494
304.26	1.416
304.47	1.426
304.68	1.436
304.89	1.418
305.10	1.365
305.31	1.350
305.52	1.404
305.73	1.397
305.94	1.351
306.15	1.339
306.37	1.369
306.58	1.378
306.79	1.335
307.00	1.359
307.21	1.411
307.42	1.404
307.63	1.359
307.84	1.320
308.05	1.364
308.26	1.363
308.47	1.331
308.68	1.324
308.89	1.326
309.10	1.322
309.31	1.270
309.52	1.261
309.73	1.276
309.95	1.270
310.16	1.235
310.37	1.222
310.58	1.241
310.79	1.240
311.00	1.231
311.21	1.234
311.42	1.240
311.63	1.235
311.84	1.211
312.05	1.209
312.26	1.236
312.47	1.251
312.68	1.221
312.89	1.205
313.10	1.212
313.31	1.182
313.52	1.181
313.73	1.180
313.94	1.185
314.15	1.165
314.36	1.139
314.57	1.129
314.78	1.113
314.99	1.108
315.21	1.093
315.42	1.099
315.63	1.113
315.84	1.089
316.05	1.073
316.26	1.080
316.47	1.101
316.68	1.096
316.89	1.076
317.10	1.100
317.31	1.105
317.52	1.107
317.73	1.084
317.94	1.083
318.15	1.135
318.36	1.135
318.57	1.115
318.78	1.101
318.99	1.141
319.20	1.137
319.41	1.097
319.62	1.100
319.83	1.114
320.04	1.109
320.25	1.094
320.46	1.052
320.67	1.055
320.88	1.050
321.09	1.034
321.30	1.018
321.51	1.035
321.72	1.033
321.93	1.015
322.14	1.007
322.35	1.034
322.56	1.035
322.77	1.021
322.98	1.035
323.19	1.044
323.40	1.052
323.61	1.028
323.82	1.022
324.03	1.030
324.24	1.025
324.45	1.011
324.66	0.991
324.87	0.988
325.08	0.988
325.29	0.966
325.50	0.959
325.71	0.965
325.92	0.972
326.13	0.958
326.34	0.958
326.55	0.968
326.76	0.965
326.97	0.955
327.18	0.947
327.39	0.973
327.60	0.974
327.80	0.974
328.01	0.972
328.22	0.974
328.43	0.977
328.64	0.964
328.85	0.967
329.06	0.971
329.27	0.970
329.48	0.966
329.69	0.947
329.90	0.959
330.11	0.952
330.32	0.944
330.53	0.936
330.74	0.935
330.95	0.934
331.16	0.920
331.37	0.927
331.58	0.928
331.79	0.927
332.00	0.917
332.21	0.909
332.42	0.912
332.63	0.904
332.83	0.900
333.04	0.902
333.25	0.914
333.46	0.913
333.67	0.899
333.88	0.902
334.09	0.911
334.30	0.908
334.51	0.899
334.72	0.895
334.93	0.899
335.14	0.898
335.35	0.889
335.56	0.885
335.77	0.894
335.98	0.891
336.18	0.883
336.39	0.876
336.60	0.881
336.81	0.880
337.02	0.878
337.23	0.882
337.44	0.885
337.65	0.887
337.86	0.875
338.07	0.870
338.28	0.877
338.49	0.873
338.70	0.865
338.91	0.872
339.11	0.879
339.32	0.875
339.53	0.861
339.74	0.858
339.95	0.856
340.16	0.855
340.37	0.847
340.58	0.845
340.79	0.850
341.00	0.850
341.21	0.839
341.41	0.839
341.62	0.841
341.83	0.842
342.04	0.837
342.25	0.847
342.46	0.852
342.67	0.850
342.88	0.842
343.09	0.841
343.30	0.848
343.50	0.850
343.71	0.841
343.92	0.839
344.13	0.844
344.34	0.843
344.55	0.827
344.76	0.825
344.97	0.830
345.18	0.829
345.38	0.826
345.59	0.820
345.80	0.821
346.01	0.819
346.22	0.814
346.43	0.809
346.64	0.818
346.85	0.818
347.06	0.812
347.26	0.812
347.47	0.817
347.68	0.812
347.89	0.807
348.10	0.802
348.31	0.809
348.52	0.808
348.73	0.805
348.93	0.801
349.14	0.804
349.35	0.803
349.56	0.796
349.77	0.791
349.98	0.798
350.19	0.796
350.39	0.791
350.60	0.787
350.81	0.803
351.02	0.802
351.23	0.797
351.44	0.798
351.65	0.802
351.86	0.800
352.06	0.799
352.27	0.799
352.48	0.802
352.69	0.801
352.90	0.794
353.11	0.780
353.31	0.788
353.52	0.783
353.73	0.775
353.94	0.777
354.15	0.783
354.36	0.781
354.57	0.772
354.77	0.773
354.98	0.773
355.19	0.773
355.40	0.772
355.61	0.777
355.82	0.783
356.02	0.783
356.23	0.777
356.44	0.779
356.65	0.783
356.86	0.785
357.07	0.779
357.27	0.782
357.48	0.785
357.69	0.780
357.90	0.765
358.11	0.761
358.32	0.766
358.52	0.768
358.73	0.757
358.94	0.760
359.15	0.765
359.36	0.765
359.56	0.759
359.77	0.756
359.98	0.765
360.19	0.764
360.40	0.760
360.61	0.760
360.81	0.759
361.02	0.761
361.23	0.751
361.44	0.749
361.65	0.750
361.85	0.750
362.06	0.747
362.27	0.748
362.48	0.749
362.69	0.751
362.89	0.745
363.10	0.748
363.31	0.753
363.52	0.756
363.73	0.751
363.93	0.751
364.14	0.754
364.35	0.756
364.56	0.746
364.77	0.748
364.97	0.751
365.18	0.751
365.39	0.745
365.60	0.741
365.81	0.743
366.01	0.744
366.22	0.741
366.43	0.740
366.64	0.742
366.84	0.748
367.05	0.744
367.26	0.743
367.47	0.745
367.68	0.745
367.88	0.741
368.09	0.739
368.30	0.741
368.51	0.740
368.71	0.739
368.92	0.743
369.13	0.741
369.34	0.740
369.55	0.738
369.75	0.739
369.96	0.746
370.17	0.746
370.38	0.742
370.58	0.742
370.79	0.749
371.00	0.748
371.21	0.739
371.41	0.745
371.62	0.749
371.83	0.745
372.04	0.742
372.24	0.734
372.45	0.736
372.66	0.736
372.87	0.732
373.07	0.728
373.28	0.729
373.49	0.733
373.70	0.723
373.90	0.722
374.11	0.732
374.32	0.732
374.53	0.730
374.73	0.731
374.94	0.734
375.15	0.734
375.36	0.731
375.56	0.740
375.77	0.740
375.98	0.740
376.19	0.737
376.39	0.730
376.60	0.734
376.81	0.735
377.02	0.732
377.22	0.731
377.43	0.730
377.64	0.731
377.84	0.721
378.05	0.725
378.26	0.731
378.47	0.730
378.67	0.727
378.88	0.724
379.09	0.724
379.30	0.724
379.50	0.721
379.71	0.724
379.92	0.727
380.12	0.726
380.33	0.718
380.54	0.716
380.75	0.723
380.95	0.723
381.16	0.720
381.37	0.720
381.57	0.722
381.78	0.722
381.99	0.721
382.20	0.720
382.40	0.723
382.61	0.723
382.82	0.719
383.02	0.712
383.23	0.716
383.44	0.717
383.64	0.715
383.85	0.717
384.06	0.720
384.27	0.718
384.47	0.716
384.68	0.716
384.89	0.722
385.09	0.722
385.30	0.720
385.51	0.718
385.71	0.722
385.92	0.722
386.13	0.720
386.33	0.722
386.54	0.724
386.75	0.722
386.95	0.718
387.16	0.713
387.37	0.715
387.58	0.715
387.78	0.714
387.99	0.711
388.20	0.713
388.40	0.710
388.61	0.705
388.82	0.708
389.02	0.710
389.23	0.710
389.44	0.709
389.64	0.709
389.85	0.720
390.06	0.720
390.26	0.721
390.47	0.719
390.68	0.722
390.88	0.721
391.09	0.716
391.30	0.714
391.50	0.714
391.71	0.713
391.92	0.710
392.12	0.702
392.33	0.702
392.53	0.702
392.74	0.702
392.95	0.702
393.15	0.705
393.36	0.707
393.57	0.705
393.77	0.708
393.98	0.710
394.19	0.710
394.39	0.709
394.60	0.711
394.81	0.713
395.01	0.710
395.22	0.708
395.43	0.709
395.63	0.715
395.84	0.716
396.04	0.712
396.25	0.713
396.46	0.716
396.66	0.713
396.87	0.710
397.08	0.707
397.28	0.710
397.49	0.710
397.69	0.706
397.90	0.701
398.11	0.702
398.31	0.703
398.52	0.699
398.73	0.700
398.93	0.699
399.14	0.698
399.34	0.697
399.55	0.698
399.76	0.698
399.96	0.699
400.17	0.697
400.37	0.696
400.58	0.703
400.79	0.705
400.99	0.702
401.20	0.708
401.41	0.711
401.61	0.711
401.82	0.715
402.02	0.715
402.23	0.716
402.44	0.716
402.64	0.715
402.85	0.710
403.05	0.708
403.26	0.707
403.47	0.701
403.67	0.700
403.88	0.700
404.08	0.695
404.29	0.692
404.50	0.692
404.70	0.693
404.91	0.692
405.11	0.689
405.32	0.689
405.52	0.690
405.73	0.690
405.94	0.688
406.14	0.691
406.35	0.693
406.55	0.693
406.76	0.691
406.97	0.691
407.17	0.693
407.38	0.693
407.58	0.691
407.79	0.693
407.99	0.696
408.20	0.697
408.41	0.693
408.61	0.691
408.82	0.692
409.02	0.692
409.23	0.689
409.43	0.688
409.64	0.690
409.84	0.689
410.05	0.686
410.26	0.684
410.46	0.683
410.67	0.683
410.87	0.684
411.08	0.686
411.28	0.687
411.49	0.689
411.69	0.686
411.90	0.688
412.11	0.689
412.31	0.690
412.52	0.688
412.72	0.689
412.93	0.690
413.13	0.689
413.34	0.685
413.54	0.686
413.75	0.688
413.95	0.687
414.16	0.684
414.37	0.686
414.57	0.687
414.78	0.689
414.98	0.687
415.19	0.689
415.39	0.687
415.60	0.689
415.80	0.688
416.01	0.686
416.21	0.688
416.42	0.688
416.62	0.683
416.83	0.683
417.03	0.683
417.24	0.684
417.44	0.681
417.65	0.680
417.86	0.681
418.06	0.679
418.27	0.677
418.47	0.679
418.68	0.680
418.88	0.680
419.09	0.679
419.29	0.679
419.50	0.680
419.70	0.680
419.91	0.678
420.11	0.676
420.32	0.679
420.52	0.678
420.73	0.677
420.93	0.677
421.14	0.678
421.34	0.677
421.55	0.674
421.75	0.673
421.96	0.675
422.16	0.674
422.37	0.673
422.57	0.670
422.78	0.672
422.98	0.669
423.19	0.667
423.39	0.666
423.60	0.670
423.80	0.671
424.01	0.669
424.21	0.672
424.42	0.673
424.62	0.673
424.83	0.672
425.03	0.672
425.23	0.675
425.44	0.675
425.64	0.675
425.85	0.673
426.05	0.675
426.26	0.676
426.46	0.672
426.67	0.671
426.87	0.677
427.08	0.677
427.28	0.675
427.49	0.676
427.69	0.677
427.90	0.676
428.10	0.673
428.31	0.672
428.51	0.674
428.71	0.673
428.92	0.674
429.12	0.672
429.33	0.672
429.53	0.676
429.74	0.680
429.94	0.680
430.15	0.680
430.35	0.680
430.56	0.677
430.76	0.676
430.96	0.677
431.17	0.675
431.37	0.672
431.58	0.671
431.78	0.668
431.99	0.662
432.19	0.664
432.40	0.666
432.60	0.667
432.80	0.669
433.01	0.667
433.21	0.668
433.42	0.670
433.62	0.670
433.83	0.669
434.03	0.671
434.23	0.674
434.44	0.673
434.64	0.670
434.85	0.675
435.05	0.676
435.26	0.677
435.46	0.675
435.66	0.674
435.87	0.674
436.07	0.674
436.28	0.670
436.48	0.667
436.69	0.667
436.89	0.667
437.09	0.660
437.30	0.659
437.50	0.659
437.71	0.670
437.91	0.670
438.11	0.671
438.32	0.675
438.52	0.676
438.73	0.675
438.93	0.674
439.13	0.673
439.34	0.677
439.54	0.675
439.75	0.675
439.95	0.666
440.15	0.670
440.36	0.669
440.56	0.667
440.77	0.668
440.97	0.668
441.17	0.667
441.38	0.669
441.58	0.666
441.79	0.665
441.99	0.664
442.19	0.663
442.40	0.661
442.60	0.661
442.81	0.657
443.01	0.657
443.21	0.658
443.42	0.658
443.62	0.656
443.82	0.656
444.03	0.658
444.23	0.658
444.44	0.658
444.64	0.656
444.84	0.658
445.05	0.659
445.25	0.657
445.45	0.656
445.66	0.659
445.86	0.659
446.06	0.660
446.27	0.660
446.47	0.663
446.68	0.662
446.88	0.660
447.08	0.660
447.29	0.661
447.49	0.662
447.69	0.662
447.90	0.660
448.10	0.664
448.30	0.662
448.51	0.663
448.71	0.660
448.91	0.663
449.12	0.662
449.32	0.663
449.52	0.662
449.73	0.665
449.93	0.664
450.14	0.665
450.34	0.664
450.54	0.666
450.75	0.664
450.95	0.663
451.15	0.663
451.36	0.665
451.56	0.662
451.76	0.661
451.97	0.659
452.17	0.660
452.37	0.659
452.58	0.655
452.78	0.655
452.98	0.657
453.19	0.656
453.39	0.657
453.59	0.655
453.79	0.656
454.00	0.657
454.20	0.655
454.40	0.656
454.61	0.658
454.81	0.659
455.01	0.658
455.22	0.659
455.42	0.661
455.62	0.658
455.83	0.658
456.03	0.661
456.23	0.662
456.44	0.663
456.64	0.661
456.84	0.661
457.04	0.662
457.25	0.660
457.45	0.657
457.65	0.656
457.86	0.657
458.06	0.656
458.26	0.651
458.47	0.650
458.67	0.652
458.87	0.652
459.07	0.650
459.28	0.652
459.48	0.654
459.68	0.655
