SpectraSuite Data File
++++++++++++++++++++++++++++++++++++
Date: Fri Jun 19 11:40:02 CEST 2015
User: introlabs
Dark Spectrum Present: Yes
Reference Spectrum Present: Yes
Number of Sampled Component Spectra: 1
Spectrometers: USB4H08886
Integration Time (usec): 5245692 (USB4H08886)
Spectra Averaged: 5 (USB4H08886)
Boxcar Smoothing: 5 (USB4H08886)
Correct for Electrical Dark: Yes (USB4H08886)
Strobe/Lamp Enabled: No (USB4H08886)
Correct for Detector Non-linearity: Yes (USB4H08886)
Correct for Stray Light: Yes (USB4H08886)
Number of Pixels in Processed Spectrum: 3648
>>>>>Begin Processed Spectral Data<<<<<
178.14	-0.000
178.36	-0.000
178.57	-0.000
178.79	-0.000
179.01	-0.000
179.22	-0.000
179.44	-0.000
179.65	-0.000
179.87	-0.000
180.08	-0.000
180.30	-0.000
180.52	-0.000
180.73	-0.000
180.95	-0.000
181.16	-0.000
181.38	-0.000
181.59	-0.000
181.81	-0.000
182.03	-0.000
182.24	-0.000
182.46	-0.000
182.67	-0.000
182.89	-0.000
183.10	-0.000
183.32	-0.000
183.54	-0.000
183.75	-0.000
183.97	-0.000
184.18	-0.000
184.40	-0.000
184.61	-0.000
184.83	-0.000
185.04	-0.000
185.26	-0.000
185.48	-0.000
185.69	-0.000
185.91	-0.000
186.12	-0.000
186.34	-0.000
186.55	-0.000
186.77	-0.000
186.98	-0.000
187.20	-0.000
187.42	-0.000
187.63	-0.000
187.85	-0.000
188.06	-0.000
188.28	-0.000
188.49	-0.000
188.71	-0.000
188.92	-0.000
189.14	-0.000
189.36	-0.000
189.57	-0.000
189.79	-0.000
190.00	-0.000
190.22	-0.000
190.43	-0.000
190.65	-0.000
190.86	-0.000
191.08	-0.000
191.29	-0.000
191.51	-0.000
191.72	-0.000
191.94	-0.000
192.16	-0.000
192.37	-0.000
192.59	-0.000
192.80	-0.000
193.02	-0.000
193.23	-0.000
193.45	-0.000
193.66	-0.000
193.88	-0.000
194.09	-0.000
194.31	-0.000
194.52	-0.000
194.74	-0.000
194.95	-0.000
195.17	-0.000
195.38	-0.000
195.60	-0.000
195.81	-0.000
196.03	-0.000
196.25	-0.000
196.46	-0.000
196.68	-0.000
196.89	-0.000
197.11	-0.000
197.32	-0.000
197.54	-0.000
197.75	-0.000
197.97	-0.000
198.18	-0.000
198.40	-0.000
198.61	-0.000
198.83	-0.000
199.04	-0.000
199.26	-0.000
199.47	-0.000
199.69	-0.000
199.90	-0.000
200.12	-0.000
200.33	-0.000
200.55	-0.000
200.76	-0.000
200.98	-0.000
201.19	-0.000
201.41	-0.000
201.62	-0.000
201.84	-0.000
202.05	-0.000
202.27	-0.000
202.48	-0.000
202.70	-0.000
202.91	-0.000
203.13	-0.000
203.34	-0.000
203.56	-0.000
203.77	-0.000
203.99	-0.000
204.20	-0.000
204.42	-0.000
204.63	-0.000
204.85	-0.000
205.06	-0.000
205.28	-0.000
205.49	-0.000
205.71	-0.000
205.92	-0.000
206.14	-0.000
206.35	-0.000
206.56	-0.000
206.78	-0.000
206.99	-0.000
207.21	-0.000
207.42	-0.000
207.64	-0.000
207.85	-0.000
208.07	-0.000
208.28	-0.000
208.50	-0.000
208.71	-0.000
208.93	-0.000
209.14	-0.000
209.36	-0.000
209.57	-0.000
209.79	-0.000
210.00	-0.000
210.22	-0.000
210.43	-0.000
210.64	-0.000
210.86	-0.000
211.07	-0.000
211.29	-0.000
211.50	-0.000
211.72	-0.000
211.93	-0.000
212.15	-0.000
212.36	-0.000
212.58	-0.000
212.79	-0.000
213.01	-0.000
213.22	-0.000
213.43	-0.000
213.65	-0.000
213.86	-0.000
214.08	-0.000
214.29	-0.000
214.51	-0.000
214.72	-0.000
214.94	-0.000
215.15	-0.000
215.36	-0.000
215.58	-0.000
215.79	-0.000
216.01	-0.000
216.22	-0.000
216.44	-0.000
216.65	-0.000
216.87	-0.000
217.08	-0.000
217.29	-0.000
217.51	-0.000
217.72	-0.000
217.94	-0.000
218.15	-0.000
218.37	-0.000
218.58	-0.000
218.80	-0.000
219.01	-0.000
219.22	-0.000
219.44	-0.000
219.65	-0.000
219.87	-0.000
220.08	-0.000
220.30	-0.000
220.51	-0.000
220.72	-0.000
220.94	-0.000
221.15	-0.000
221.37	-0.000
221.58	-0.000
221.79	-0.000
222.01	-0.000
222.22	-0.000
222.44	-0.000
222.65	-0.000
222.87	-0.000
223.08	-0.000
223.29	-0.000
223.51	-0.000
223.72	-0.000
223.94	-0.000
224.15	-0.000
224.36	-0.000
224.58	-0.000
224.79	-0.000
225.01	-0.000
225.22	-0.000
225.44	-0.000
225.65	-0.000
225.86	-0.000
226.08	-0.000
226.29	-0.000
226.51	-0.000
226.72	-0.000
226.93	-0.000
227.15	-0.000
227.36	-0.000
227.58	-0.000
227.79	-0.000
228.00	-0.000
228.22	-0.000
228.43	-0.000
228.65	-0.000
228.86	-0.000
229.07	-0.000
229.29	-0.000
229.50	-0.000
229.72	-0.000
229.93	-0.000
230.14	-0.000
230.36	-0.000
230.57	-0.000
230.78	-0.000
231.00	-0.000
231.21	-0.000
231.43	-0.000
231.64	-0.000
231.85	-0.000
232.07	-0.000
232.28	-0.000
232.50	-0.000
232.71	-0.000
232.92	-0.000
233.14	-0.000
233.35	-0.000
233.56	-0.000
233.78	-0.000
233.99	-0.000
234.21	-0.000
234.42	-0.000
234.63	-0.000
234.85	-0.000
235.06	-0.000
235.27	-0.000
235.49	-0.000
235.70	-0.000
235.91	-0.000
236.13	-0.000
236.34	-0.000
236.56	-0.000
236.77	-0.000
236.98	-0.000
237.20	-0.000
237.41	-0.000
237.62	-0.000
237.84	-0.000
238.05	-0.000
238.26	-0.000
238.48	-0.000
238.69	-0.000
238.91	-0.000
239.12	-0.000
239.33	-0.000
239.55	-0.000
239.76	-0.000
239.97	-0.000
240.19	-0.000
240.40	-0.000
240.61	-0.000
240.83	-0.000
241.04	-0.000
241.25	-0.000
241.47	-0.000
241.68	-0.000
241.89	-0.000
242.11	-0.000
242.32	-0.000
242.53	-0.000
242.75	-0.000
242.96	-0.000
243.17	-0.000
243.39	-0.000
243.60	-0.000
243.81	-0.000
244.03	-0.000
244.24	-0.000
244.45	-0.000
244.67	-0.000
244.88	-0.000
245.09	-0.000
245.31	-0.000
245.52	-0.000
245.73	-0.000
245.95	-0.000
246.16	-0.000
246.37	-0.000
246.59	-0.000
246.80	-0.000
247.01	-0.000
247.23	-0.000
247.44	-0.000
247.65	-0.000
247.87	-0.000
248.08	-0.000
248.29	-0.000
248.51	-0.000
248.72	-0.000
248.93	-0.000
249.15	-0.000
249.36	-0.000
249.57	-0.000
249.78	-0.000
250.00	-0.000
250.21	-0.000
250.42	-0.000
250.64	-0.000
250.85	-0.000
251.06	-0.000
251.28	-0.000
251.49	-0.000
251.70	-0.000
251.92	-0.000
252.13	-0.000
252.34	-0.000
252.55	-0.000
252.77	-0.000
252.98	-0.000
253.19	-0.000
253.41	-0.000
253.62	-0.000
253.83	-0.000
254.05	-0.000
254.26	-0.000
254.47	-0.000
254.68	-0.000
254.90	-0.000
255.11	-0.000
255.32	-0.000
255.54	-0.000
255.75	-0.000
255.96	-0.000
256.17	-0.000
256.39	-0.000
256.60	-0.000
256.81	-0.000
257.03	-0.000
257.24	-0.000
257.45	-0.000
257.66	-0.000
257.88	-0.000
258.09	-0.000
258.30	-0.000
258.51	-0.000
258.73	-0.000
258.94	-0.000
259.15	-0.000
259.37	-0.000
259.58	-0.000
259.79	-0.000
260.00	-0.000
260.22	-0.000
260.43	-0.000
260.64	-0.000
260.85	-0.000
261.07	-0.000
261.28	-0.000
261.49	-0.000
261.71	-0.000
261.92	-0.000
262.13	-0.000
262.34	-0.000
262.56	-0.000
262.77	-0.000
262.98	-0.000
263.19	-0.000
263.41	-0.000
263.62	-0.000
263.83	-0.000
264.04	-0.000
264.26	-0.000
264.47	-0.000
264.68	-0.000
264.89	-0.000
265.11	-0.000
265.32	-0.000
265.53	-0.000
265.74	-0.000
265.96	-0.000
266.17	-0.000
266.38	-0.000
266.59	-0.000
266.81	-0.000
267.02	-0.000
267.23	-0.000
267.44	-0.000
267.65	-0.000
267.87	-0.000
268.08	-0.000
268.29	-0.000
268.50	-0.000
268.72	-0.000
268.93	-0.000
269.14	-0.000
269.35	-0.000
269.57	-0.000
269.78	-0.000
269.99	-0.000
270.20	-0.000
270.41	-0.000
270.63	-0.000
270.84	-0.000
271.05	-0.000
271.26	-0.000
271.48	-0.000
271.69	-0.000
271.90	-0.000
272.11	-0.000
272.32	-0.000
272.54	-0.000
272.75	-0.000
272.96	-0.000
273.17	-0.000
273.39	-0.000
273.60	-0.000
273.81	-0.000
274.02	-0.000
274.23	-0.000
274.45	-0.000
274.66	-0.000
274.87	-0.000
275.08	-0.000
275.29	-0.000
275.51	-0.000
275.72	-0.000
275.93	-0.000
276.14	-0.000
276.35	-0.000
276.57	-0.000
276.78	-0.000
276.99	-0.000
277.20	-0.000
277.41	-0.000
277.63	-0.000
277.84	-0.000
278.05	-0.000
278.26	-0.000
278.47	-0.000
278.69	-0.000
278.90	-0.000
279.11	-0.000
279.32	-0.000
279.53	-0.000
279.74	-0.000
279.96	-0.000
280.17	-0.000
280.38	-0.000
280.59	-0.000
280.80	-0.000
281.02	-0.000
281.23	-0.000
281.44	-0.000
281.65	-0.000
281.86	-0.000
282.07	-0.000
282.29	-0.000
282.50	-0.000
282.71	-0.000
282.92	-0.000
283.13	-0.000
283.35	-0.000
283.56	-0.000
283.77	-0.000
283.98	-0.000
284.19	-0.000
284.40	-0.000
284.62	2.965
284.83	1.951
285.04	1.744
285.25	1.721
285.46	1.548
285.67	1.447
285.88	1.474
286.10	1.426
286.31	1.500
286.52	1.629
286.73	1.570
286.94	1.565
287.15	1.475
287.37	1.585
287.58	1.573
287.79	1.559
288.00	1.655
288.21	1.587
288.42	1.405
288.63	1.322
288.85	1.221
289.06	1.142
289.27	1.133
289.48	1.103
289.69	1.035
289.90	1.014
290.11	1.011
290.33	0.963
290.54	0.944
290.75	0.967
290.96	0.938
291.17	0.944
291.38	0.947
291.59	0.926
291.81	0.945
292.02	0.948
292.23	0.948
292.44	0.936
292.65	0.940
292.86	0.920
293.07	0.899
293.28	0.904
293.50	0.880
293.71	0.879
293.92	0.881
294.13	0.856
294.34	0.846
294.55	0.836
294.76	0.838
294.97	0.842
295.19	0.838
295.40	0.827
295.61	0.825
295.82	0.844
296.03	0.844
296.24	0.834
296.45	0.844
296.66	0.866
296.87	0.864
297.09	0.868
297.30	0.845
297.51	0.852
297.72	0.846
297.93	0.833
298.14	0.817
298.35	0.806
298.56	0.819
298.77	0.808
298.99	0.797
299.20	0.790
299.41	0.782
299.62	0.787
299.83	0.779
300.04	0.777
300.25	0.783
300.46	0.785
300.67	0.787
300.88	0.775
301.10	0.772
301.31	0.760
301.52	0.760
301.73	0.757
301.94	0.757
302.15	0.759
302.36	0.766
302.57	0.765
302.78	0.754
302.99	0.757
303.20	0.750
303.41	0.752
303.63	0.763
303.84	0.770
304.05	0.763
304.26	0.763
304.47	0.753
304.68	0.747
304.89	0.743
305.10	0.754
305.31	0.744
305.52	0.742
305.73	0.745
305.94	0.737
306.15	0.729
306.37	0.727
306.58	0.718
306.79	0.722
307.00	0.721
307.21	0.722
307.42	0.712
307.63	0.714
307.84	0.724
308.05	0.717
308.26	0.711
308.47	0.717
308.68	0.713
308.89	0.715
309.10	0.710
309.31	0.713
309.52	0.704
309.73	0.704
309.95	0.706
310.16	0.695
310.37	0.693
310.58	0.692
310.79	0.683
311.00	0.681
311.21	0.680
311.42	0.688
311.63	0.681
311.84	0.679
312.05	0.674
312.26	0.666
312.47	0.664
312.68	0.664
312.89	0.669
313.10	0.676
313.31	0.679
313.52	0.674
313.73	0.664
313.94	0.668
314.15	0.675
314.36	0.675
314.57	0.679
314.78	0.685
314.99	0.683
315.21	0.677
315.42	0.669
315.63	0.666
315.84	0.669
316.05	0.670
316.26	0.662
316.47	0.656
316.68	0.661
316.89	0.661
317.10	0.653
317.31	0.658
317.52	0.657
317.73	0.661
317.94	0.662
318.15	0.665
318.36	0.668
318.57	0.675
318.78	0.679
318.99	0.670
319.20	0.673
319.41	0.676
319.62	0.674
319.83	0.680
320.04	0.676
320.25	0.674
320.46	0.670
320.67	0.666
320.88	0.663
321.09	0.661
321.30	0.662
321.51	0.656
321.72	0.655
321.93	0.655
322.14	0.647
322.35	0.643
322.56	0.642
322.77	0.640
322.98	0.638
323.19	0.632
323.40	0.628
323.61	0.627
323.82	0.625
324.03	0.626
324.24	0.627
324.45	0.627
324.66	0.631
324.87	0.632
325.08	0.632
325.29	0.638
325.50	0.639
325.71	0.642
325.92	0.640
326.13	0.642
326.34	0.643
326.55	0.643
326.76	0.645
326.97	0.645
327.18	0.647
327.39	0.645
327.60	0.637
327.80	0.635
328.01	0.632
328.22	0.635
328.43	0.633
328.64	0.630
328.85	0.626
329.06	0.624
329.27	0.623
329.48	0.619
329.69	0.622
329.90	0.622
330.11	0.625
330.32	0.624
330.53	0.622
330.74	0.621
330.95	0.621
331.16	0.621
331.37	0.621
331.58	0.617
331.79	0.618
332.00	0.616
332.21	0.618
332.42	0.617
332.63	0.619
332.83	0.624
333.04	0.628
333.25	0.625
333.46	0.628
333.67	0.627
333.88	0.628
334.09	0.625
334.30	0.628
334.51	0.628
334.72	0.627
334.93	0.626
335.14	0.621
335.35	0.615
335.56	0.616
335.77	0.611
335.98	0.613
336.18	0.610
336.39	0.610
336.60	0.609
336.81	0.610
337.02	0.607
337.23	0.605
337.44	0.605
337.65	0.605
337.86	0.605
338.07	0.606
338.28	0.603
338.49	0.605
338.70	0.606
338.91	0.603
339.11	0.602
339.32	0.602
339.53	0.607
339.74	0.609
339.95	0.610
340.16	0.613
340.37	0.614
340.58	0.616
340.79	0.612
341.00	0.611
341.21	0.611
341.41	0.606
341.62	0.608
341.83	0.602
342.04	0.599
342.25	0.599
342.46	0.594
342.67	0.594
342.88	0.594
343.09	0.593
343.30	0.591
343.50	0.592
343.71	0.592
343.92	0.591
344.13	0.591
344.34	0.589
344.55	0.590
344.76	0.591
344.97	0.588
345.18	0.589
345.38	0.589
345.59	0.593
345.80	0.594
346.01	0.598
346.22	0.600
346.43	0.601
346.64	0.599
346.85	0.599
347.06	0.600
347.26	0.600
347.47	0.597
347.68	0.601
347.89	0.597
348.10	0.599
348.31	0.594
348.52	0.593
348.73	0.591
348.93	0.594
349.14	0.594
349.35	0.594
349.56	0.594
349.77	0.595
349.98	0.595
350.19	0.596
350.39	0.596
350.60	0.600
350.81	0.595
351.02	0.596
351.23	0.594
351.44	0.592
351.65	0.592
351.86	0.594
352.06	0.591
352.27	0.588
352.48	0.588
352.69	0.588
352.90	0.586
353.11	0.586
353.31	0.586
353.52	0.589
353.73	0.591
353.94	0.588
354.15	0.586
354.36	0.586
354.57	0.587
354.77	0.585
354.98	0.584
355.19	0.585
355.40	0.585
355.61	0.584
355.82	0.582
356.02	0.581
356.23	0.581
356.44	0.581
356.65	0.581
356.86	0.579
357.07	0.580
357.27	0.579
357.48	0.577
357.69	0.578
357.90	0.579
358.11	0.580
358.32	0.579
358.52	0.579
358.73	0.579
358.94	0.579
359.15	0.580
359.36	0.578
359.56	0.580
359.77	0.580
359.98	0.578
360.19	0.579
360.40	0.580
360.61	0.581
360.81	0.580
361.02	0.580
361.23	0.580
361.44	0.582
361.65	0.582
361.85	0.581
362.06	0.582
362.27	0.582
362.48	0.582
362.69	0.579
362.89	0.579
363.10	0.582
363.31	0.582
363.52	0.581
363.73	0.579
363.93	0.581
364.14	0.581
364.35	0.578
364.56	0.581
364.77	0.581
364.97	0.581
365.18	0.580
365.39	0.580
365.60	0.579
365.81	0.579
366.01	0.579
366.22	0.576
366.43	0.576
366.64	0.576
366.84	0.573
367.05	0.572
367.26	0.571
367.47	0.573
367.68	0.571
367.88	0.573
368.09	0.573
368.30	0.572
368.51	0.574
368.71	0.572
368.92	0.571
369.13	0.573
369.34	0.574
369.55	0.574
369.75	0.572
369.96	0.571
370.17	0.572
370.38	0.573
370.58	0.573
370.79	0.571
371.00	0.572
371.21	0.574
371.41	0.572
371.62	0.571
371.83	0.573
372.04	0.571
372.24	0.573
372.45	0.571
372.66	0.569
372.87	0.571
373.07	0.572
373.28	0.572
373.49	0.569
373.70	0.570
373.90	0.570
374.11	0.568
374.32	0.569
374.53	0.568
374.73	0.570
374.94	0.569
375.15	0.567
375.36	0.567
375.56	0.565
375.77	0.565
375.98	0.564
376.19	0.564
376.39	0.567
376.60	0.566
376.81	0.564
377.02	0.563
377.22	0.565
377.43	0.566
377.64	0.566
377.84	0.566
378.05	0.566
378.26	0.565
378.47	0.566
378.67	0.564
378.88	0.564
379.09	0.564
379.30	0.563
379.50	0.563
379.71	0.561
379.92	0.560
380.12	0.560
380.33	0.563
380.54	0.564
380.75	0.562
380.95	0.562
381.16	0.563
381.37	0.564
381.57	0.565
381.78	0.564
381.99	0.563
382.20	0.564
382.40	0.565
382.61	0.564
382.82	0.564
383.02	0.566
383.23	0.565
383.44	0.565
383.64	0.565
383.85	0.563
384.06	0.563
384.27	0.564
384.47	0.565
384.68	0.564
384.89	0.563
385.09	0.563
385.30	0.563
385.51	0.564
385.71	0.562
385.92	0.561
386.13	0.561
386.33	0.562
386.54	0.561
386.75	0.560
386.95	0.559
387.16	0.560
387.37	0.560
387.58	0.560
387.78	0.559
387.99	0.559
388.20	0.559
388.40	0.561
388.61	0.558
388.82	0.560
389.02	0.559
389.23	0.558
389.44	0.559
389.64	0.559
389.85	0.557
390.06	0.556
390.26	0.555
390.47	0.555
390.68	0.556
390.88	0.558
391.09	0.555
391.30	0.557
391.50	0.558
391.71	0.557
391.92	0.556
392.12	0.557
392.33	0.557
392.53	0.557
392.74	0.556
392.95	0.554
393.15	0.553
393.36	0.553
393.57	0.553
393.77	0.553
393.98	0.552
394.19	0.553
394.39	0.553
394.60	0.552
394.81	0.553
395.01	0.554
395.22	0.555
395.43	0.554
395.63	0.553
395.84	0.551
396.04	0.553
396.25	0.551
396.46	0.550
396.66	0.551
396.87	0.551
397.08	0.551
397.28	0.551
397.49	0.550
397.69	0.551
397.90	0.551
398.11	0.552
398.31	0.550
398.52	0.551
398.73	0.552
398.93	0.552
399.14	0.553
399.34	0.552
399.55	0.552
399.76	0.552
399.96	0.551
400.17	0.552
400.37	0.552
400.58	0.551
400.79	0.550
400.99	0.548
401.20	0.548
401.41	0.548
401.61	0.547
401.82	0.546
402.02	0.547
402.23	0.548
402.44	0.548
402.64	0.546
402.85	0.546
403.05	0.547
403.26	0.547
403.47	0.548
403.67	0.547
403.88	0.547
404.08	0.547
404.29	0.547
404.50	0.546
404.70	0.546
404.91	0.546
405.11	0.546
405.32	0.547
405.52	0.547
405.73	0.547
405.94	0.548
406.14	0.547
406.35	0.547
406.55	0.547
406.76	0.546
406.97	0.545
407.17	0.545
407.38	0.546
407.58	0.545
407.79	0.545
407.99	0.543
408.20	0.542
408.41	0.544
408.61	0.544
408.82	0.543
409.02	0.543
409.23	0.544
409.43	0.544
409.64	0.542
409.84	0.543
410.05	0.543
410.26	0.544
410.46	0.545
410.67	0.545
410.87	0.544
411.08	0.543
411.28	0.542
411.49	0.542
411.69	0.541
411.90	0.543
412.11	0.542
412.31	0.542
412.52	0.541
412.72	0.541
412.93	0.540
413.13	0.540
413.34	0.542
413.54	0.542
413.75	0.543
413.95	0.545
414.16	0.544
414.37	0.543
414.57	0.544
414.78	0.544
414.98	0.545
415.19	0.545
415.39	0.545
415.60	0.544
415.80	0.544
416.01	0.543
416.21	0.541
416.42	0.541
416.62	0.542
416.83	0.541
417.03	0.542
417.24	0.541
417.44	0.540
417.65	0.541
417.86	0.541
418.06	0.542
418.27	0.542
418.47	0.542
418.68	0.541
418.88	0.541
419.09	0.541
419.29	0.541
419.50	0.541
419.70	0.542
419.91	0.542
420.11	0.542
420.32	0.541
420.52	0.541
420.73	0.540
420.93	0.541
421.14	0.542
421.34	0.542
421.55	0.543
421.75	0.542
421.96	0.541
422.16	0.541
422.37	0.540
422.57	0.541
422.78	0.540
422.98	0.541
423.19	0.543
423.39	0.542
423.60	0.541
423.80	0.540
424.01	0.541
424.21	0.540
424.42	0.540
424.62	0.541
424.83	0.540
425.03	0.540
425.23	0.539
425.44	0.537
425.64	0.537
425.85	0.536
426.05	0.536
426.26	0.535
426.46	0.535
426.67	0.535
426.87	0.533
427.08	0.533
427.28	0.533
427.49	0.533
427.69	0.534
427.90	0.534
428.10	0.536
428.31	0.537
428.51	0.538
428.71	0.539
428.92	0.538
429.12	0.540
429.33	0.540
429.53	0.540
429.74	0.539
429.94	0.541
430.15	0.542
430.35	0.540
430.56	0.539
430.76	0.539
430.96	0.539
431.17	0.539
431.37	0.539
431.58	0.539
431.78	0.540
431.99	0.541
432.19	0.539
432.40	0.539
432.60	0.541
432.80	0.541
433.01	0.540
433.21	0.539
433.42	0.540
433.62	0.540
433.83	0.540
434.03	0.540
434.23	0.539
434.44	0.540
434.64	0.539
434.85	0.539
435.05	0.540
435.26	0.540
435.46	0.541
435.66	0.541
435.87	0.541
436.07	0.540
436.28	0.542
436.48	0.543
436.69	0.544
436.89	0.544
437.09	0.544
437.30	0.544
437.50	0.544
437.71	0.543
437.91	0.543
438.11	0.543
438.32	0.542
438.52	0.541
438.73	0.540
438.93	0.540
439.13	0.541
439.34	0.541
439.54	0.540
439.75	0.541
439.95	0.542
440.15	0.543
440.36	0.541
440.56	0.542
440.77	0.543
440.97	0.543
441.17	0.542
441.38	0.542
441.58	0.543
441.79	0.544
441.99	0.544
442.19	0.543
442.40	0.542
442.60	0.542
442.81	0.542
443.01	0.541
443.21	0.541
443.42	0.542
443.62	0.541
443.82	0.541
444.03	0.541
444.23	0.541
444.44	0.540
444.64	0.542
444.84	0.543
445.05	0.544
445.25	0.545
445.45	0.544
445.66	0.542
445.86	0.544
446.06	0.543
446.27	0.543
446.47	0.541
446.68	0.543
446.88	0.542
447.08	0.541
447.29	0.540
447.49	0.540
447.69	0.539
447.90	0.540
448.10	0.538
448.30	0.539
448.51	0.537
448.71	0.539
448.91	0.538
449.12	0.540
449.32	0.538
449.52	0.538
449.73	0.536
449.93	0.537
450.14	0.537
450.34	0.537
450.54	0.535
450.75	0.537
450.95	0.536
451.15	0.536
451.36	0.535
451.56	0.537
451.76	0.537
451.97	0.540
452.17	0.540
452.37	0.540
452.58	0.542
452.78	0.544
452.98	0.544
453.19	0.545
453.39	0.545
453.59	0.544
453.79	0.543
454.00	0.544
454.20	0.543
454.40	0.544
454.61	0.544
454.81	0.543
455.01	0.542
455.22	0.542
455.42	0.541
455.62	0.542
455.83	0.541
456.03	0.541
456.23	0.540
456.44	0.540
456.64	0.539
456.84	0.538
457.04	0.540
457.25	0.542
457.45	0.542
457.65	0.543
457.86	0.544
458.06	0.546
458.26	0.547
458.47	0.547
458.67	0.547
458.87	0.547
459.07	0.546
459.28	0.543
459.48	0.542
459.68	0.541
459.89	0.540
460.09	0.540
460.29	0.539
460.49	0.538
460.70	0.539
