SpectraSuite Data File
++++++++++++++++++++++++++++++++++++
Date: Fri Jun 19 11:47:24 CEST 2015
User: introlabs
Dark Spectrum Present: Yes
Reference Spectrum Present: Yes
Number of Sampled Component Spectra: 1
Spectrometers: USB4H08886
Integration Time (usec): 5245692 (USB4H08886)
Spectra Averaged: 5 (USB4H08886)
Boxcar Smoothing: 5 (USB4H08886)
Correct for Electrical Dark: Yes (USB4H08886)
Strobe/Lamp Enabled: No (USB4H08886)
Correct for Detector Non-linearity: Yes (USB4H08886)
Correct for Stray Light: Yes (USB4H08886)
Number of Pixels in Processed Spectrum: 3648
>>>>>Begin Processed Spectral Data<<<<<
178.14	-0.000
178.36	-0.000
178.57	-0.000
178.79	-0.000
179.01	-0.000
179.22	-0.000
179.44	-0.000
179.65	-0.000
179.87	-0.000
180.08	-0.000
180.30	-0.000
180.52	-0.000
180.73	-0.000
180.95	-0.000
181.16	-0.000
181.38	-0.000
181.59	-0.000
181.81	-0.000
182.03	-0.000
182.24	-0.000
182.46	-0.000
182.67	-0.000
182.89	-0.000
183.10	-0.000
183.32	-0.000
183.54	-0.000
183.75	-0.000
183.97	-0.000
184.18	-0.000
184.40	-0.000
184.61	-0.000
184.83	-0.000
185.04	-0.000
185.26	-0.000
185.48	-0.000
185.69	-0.000
185.91	-0.000
186.12	-0.000
186.34	-0.000
186.55	-0.000
186.77	-0.000
186.98	-0.000
187.20	-0.000
187.42	-0.000
187.63	-0.000
187.85	-0.000
188.06	-0.000
188.28	-0.000
188.49	-0.000
188.71	-0.000
188.92	-0.000
189.14	-0.000
189.36	-0.000
189.57	-0.000
189.79	-0.000
190.00	-0.000
190.22	-0.000
190.43	-0.000
190.65	-0.000
190.86	-0.000
191.08	-0.000
191.29	-0.000
191.51	-0.000
191.72	-0.000
191.94	-0.000
192.16	-0.000
192.37	-0.000
192.59	-0.000
192.80	-0.000
193.02	-0.000
193.23	-0.000
193.45	-0.000
193.66	-0.000
193.88	-0.000
194.09	-0.000
194.31	-0.000
194.52	-0.000
194.74	-0.000
194.95	-0.000
195.17	-0.000
195.38	-0.000
195.60	-0.000
195.81	-0.000
196.03	-0.000
196.25	-0.000
196.46	-0.000
196.68	-0.000
196.89	-0.000
197.11	-0.000
197.32	-0.000
197.54	-0.000
197.75	-0.000
197.97	-0.000
198.18	-0.000
198.40	-0.000
198.61	-0.000
198.83	-0.000
199.04	-0.000
199.26	-0.000
199.47	-0.000
199.69	-0.000
199.90	-0.000
200.12	-0.000
200.33	-0.000
200.55	-0.000
200.76	-0.000
200.98	-0.000
201.19	-0.000
201.41	-0.000
201.62	-0.000
201.84	-0.000
202.05	-0.000
202.27	-0.000
202.48	-0.000
202.70	-0.000
202.91	-0.000
203.13	-0.000
203.34	-0.000
203.56	-0.000
203.77	-0.000
203.99	-0.000
204.20	-0.000
204.42	-0.000
204.63	-0.000
204.85	-0.000
205.06	-0.000
205.28	-0.000
205.49	-0.000
205.71	-0.000
205.92	-0.000
206.14	-0.000
206.35	-0.000
206.56	-0.000
206.78	-0.000
206.99	-0.000
207.21	-0.000
207.42	-0.000
207.64	-0.000
207.85	-0.000
208.07	-0.000
208.28	-0.000
208.50	-0.000
208.71	-0.000
208.93	-0.000
209.14	-0.000
209.36	-0.000
209.57	-0.000
209.79	-0.000
210.00	-0.000
210.22	-0.000
210.43	-0.000
210.64	-0.000
210.86	-0.000
211.07	-0.000
211.29	-0.000
211.50	-0.000
211.72	-0.000
211.93	-0.000
212.15	-0.000
212.36	-0.000
212.58	-0.000
212.79	-0.000
213.01	-0.000
213.22	-0.000
213.43	-0.000
213.65	-0.000
213.86	-0.000
214.08	-0.000
214.29	-0.000
214.51	-0.000
214.72	-0.000
214.94	-0.000
215.15	-0.000
215.36	-0.000
215.58	-0.000
215.79	-0.000
216.01	-0.000
216.22	-0.000
216.44	-0.000
216.65	-0.000
216.87	-0.000
217.08	-0.000
217.29	-0.000
217.51	-0.000
217.72	-0.000
217.94	-0.000
218.15	-0.000
218.37	-0.000
218.58	-0.000
218.80	-0.000
219.01	-0.000
219.22	-0.000
219.44	-0.000
219.65	-0.000
219.87	-0.000
220.08	-0.000
220.30	-0.000
220.51	-0.000
220.72	-0.000
220.94	-0.000
221.15	-0.000
221.37	-0.000
221.58	-0.000
221.79	-0.000
222.01	-0.000
222.22	-0.000
222.44	-0.000
222.65	-0.000
222.87	-0.000
223.08	-0.000
223.29	-0.000
223.51	-0.000
223.72	-0.000
223.94	-0.000
224.15	-0.000
224.36	-0.000
224.58	-0.000
224.79	-0.000
225.01	-0.000
225.22	-0.000
225.44	-0.000
225.65	-0.000
225.86	-0.000
226.08	-0.000
226.29	-0.000
226.51	-0.000
226.72	-0.000
226.93	-0.000
227.15	-0.000
227.36	-0.000
227.58	-0.000
227.79	-0.000
228.00	-0.000
228.22	-0.000
228.43	-0.000
228.65	-0.000
228.86	-0.000
229.07	-0.000
229.29	-0.000
229.50	-0.000
229.72	-0.000
229.93	-0.000
230.14	-0.000
230.36	-0.000
230.57	-0.000
230.78	-0.000
231.00	-0.000
231.21	-0.000
231.43	-0.000
231.64	-0.000
231.85	-0.000
232.07	-0.000
232.28	-0.000
232.50	-0.000
232.71	-0.000
232.92	-0.000
233.14	-0.000
233.35	-0.000
233.56	-0.000
233.78	-0.000
233.99	-0.000
234.21	-0.000
234.42	-0.000
234.63	-0.000
234.85	-0.000
235.06	-0.000
235.27	-0.000
235.49	-0.000
235.70	-0.000
235.91	-0.000
236.13	-0.000
236.34	-0.000
236.56	-0.000
236.77	-0.000
236.98	-0.000
237.20	-0.000
237.41	-0.000
237.62	-0.000
237.84	-0.000
238.05	-0.000
238.26	-0.000
238.48	-0.000
238.69	-0.000
238.91	-0.000
239.12	-0.000
239.33	-0.000
239.55	-0.000
239.76	-0.000
239.97	-0.000
240.19	-0.000
240.40	-0.000
240.61	-0.000
240.83	-0.000
241.04	-0.000
241.25	-0.000
241.47	-0.000
241.68	-0.000
241.89	-0.000
242.11	-0.000
242.32	-0.000
242.53	-0.000
242.75	-0.000
242.96	-0.000
243.17	-0.000
243.39	-0.000
243.60	-0.000
243.81	-0.000
244.03	-0.000
244.24	-0.000
244.45	-0.000
244.67	-0.000
244.88	-0.000
245.09	-0.000
245.31	-0.000
245.52	-0.000
245.73	-0.000
245.95	-0.000
246.16	-0.000
246.37	-0.000
246.59	-0.000
246.80	-0.000
247.01	-0.000
247.23	-0.000
247.44	-0.000
247.65	-0.000
247.87	-0.000
248.08	-0.000
248.29	-0.000
248.51	-0.000
248.72	-0.000
248.93	-0.000
249.15	-0.000
249.36	-0.000
249.57	-0.000
249.78	-0.000
250.00	-0.000
250.21	-0.000
250.42	-0.000
250.64	-0.000
250.85	-0.000
251.06	-0.000
251.28	-0.000
251.49	-0.000
251.70	-0.000
251.92	-0.000
252.13	-0.000
252.34	-0.000
252.55	-0.000
252.77	-0.000
252.98	1.559
253.19	1.814
253.41	1.581
253.62	-0.000
253.83	-0.000
254.05	-0.000
254.26	-0.000
254.47	1.910
254.68	1.845
254.90	1.408
255.11	1.117
255.32	1.151
255.54	1.150
255.75	1.196
255.96	1.014
256.17	0.909
256.39	0.916
256.60	1.019
256.81	1.044
257.03	1.105
257.24	1.211
257.45	1.324
257.66	1.260
257.88	1.212
258.09	1.146
258.30	1.188
258.51	1.157
258.73	1.129
258.94	0.984
259.15	0.962
259.37	0.954
259.58	0.892
259.79	0.893
260.00	0.972
260.22	1.063
260.43	1.098
260.64	1.009
260.85	1.082
261.07	1.015
261.28	1.200
261.49	1.185
261.71	1.207
261.92	1.495
262.13	1.321
262.34	1.214
262.56	1.158
262.77	1.107
262.98	1.134
263.19	1.133
263.41	1.328
263.62	1.261
263.83	1.282
264.04	1.230
264.26	1.054
264.47	1.114
264.68	1.165
264.89	1.226
265.11	1.256
265.32	1.359
265.53	1.281
265.74	1.199
265.96	1.175
266.17	1.231
266.38	1.179
266.59	1.334
266.81	1.338
267.02	1.170
267.23	1.062
267.44	1.105
267.65	1.040
267.87	1.048
268.08	1.002
268.29	0.920
268.50	0.895
268.72	0.888
268.93	0.826
269.14	0.796
269.35	0.815
269.57	0.799
269.78	0.767
269.99	0.770
270.20	0.754
270.41	0.744
270.63	0.754
270.84	0.748
271.05	0.742
271.26	0.745
271.48	0.766
271.69	0.778
271.90	0.781
272.11	0.782
272.32	0.819
272.54	0.806
272.75	0.812
272.96	0.811
273.17	0.789
273.39	0.796
273.60	0.798
273.81	0.828
274.02	0.828
274.23	0.844
274.45	0.872
274.66	0.827
274.87	0.839
275.08	0.818
275.29	0.862
275.51	0.869
275.72	0.857
275.93	0.851
276.14	0.793
276.35	0.797
276.57	0.793
276.78	0.809
276.99	0.813
277.20	0.830
277.41	0.834
277.63	0.782
277.84	0.777
278.05	0.794
278.26	0.789
278.47	0.801
278.69	0.764
278.90	0.749
279.11	0.719
279.32	0.707
279.53	0.685
279.74	0.701
279.96	0.704
280.17	0.695
280.38	0.706
280.59	0.711
280.80	0.729
281.02	0.740
281.23	0.749
281.44	0.755
281.65	0.766
281.86	0.789
282.07	0.773
282.29	0.785
282.50	0.808
282.71	0.779
282.92	0.772
283.13	0.748
283.35	0.748
283.56	0.734
283.77	0.751
283.98	0.753
284.19	0.737
284.40	0.740
284.62	0.729
284.83	0.714
285.04	0.710
285.25	0.700
285.46	0.696
285.67	0.685
285.88	0.698
286.10	0.692
286.31	0.699
286.52	0.709
286.73	0.714
286.94	0.709
287.15	0.708
287.37	0.721
287.58	0.729
287.79	0.728
288.00	0.739
288.21	0.733
288.42	0.718
288.63	0.707
288.85	0.693
289.06	0.675
289.27	0.679
289.48	0.673
289.69	0.662
289.90	0.656
290.11	0.659
290.33	0.646
290.54	0.643
290.75	0.651
290.96	0.646
291.17	0.648
291.38	0.651
291.59	0.644
291.81	0.653
292.02	0.652
292.23	0.655
292.44	0.651
292.65	0.656
292.86	0.649
293.07	0.642
293.28	0.646
293.50	0.641
293.71	0.640
293.92	0.645
294.13	0.636
294.34	0.635
294.55	0.630
294.76	0.632
294.97	0.633
295.19	0.634
295.40	0.630
295.61	0.629
295.82	0.637
296.03	0.640
296.24	0.634
296.45	0.639
296.66	0.646
296.87	0.649
297.09	0.652
297.30	0.646
297.51	0.648
297.72	0.648
297.93	0.644
298.14	0.640
298.35	0.634
298.56	0.643
298.77	0.637
298.99	0.633
299.20	0.629
299.41	0.626
299.62	0.627
299.83	0.625
300.04	0.623
300.25	0.626
300.46	0.625
300.67	0.627
300.88	0.620
301.10	0.622
301.31	0.616
301.52	0.617
301.73	0.616
301.94	0.617
302.15	0.618
302.36	0.623
302.57	0.621
302.78	0.616
302.99	0.617
303.20	0.615
303.41	0.613
303.63	0.621
303.84	0.624
304.05	0.621
304.26	0.621
304.47	0.618
304.68	0.614
304.89	0.614
305.10	0.620
305.31	0.615
305.52	0.615
305.73	0.618
305.94	0.611
306.15	0.608
306.37	0.607
306.58	0.603
306.79	0.605
307.00	0.606
307.21	0.605
307.42	0.601
307.63	0.602
307.84	0.610
308.05	0.605
308.26	0.604
308.47	0.607
308.68	0.605
308.89	0.606
309.10	0.604
309.31	0.606
309.52	0.604
309.73	0.602
309.95	0.605
310.16	0.598
310.37	0.597
310.58	0.596
310.79	0.592
311.00	0.592
311.21	0.593
311.42	0.597
311.63	0.595
311.84	0.593
312.05	0.592
312.26	0.587
312.47	0.589
312.68	0.589
312.89	0.593
313.10	0.597
313.31	0.598
313.52	0.594
313.73	0.589
313.94	0.590
314.15	0.594
314.36	0.593
314.57	0.595
314.78	0.597
314.99	0.596
315.21	0.592
315.42	0.589
315.63	0.587
315.84	0.590
316.05	0.589
316.26	0.586
316.47	0.582
316.68	0.586
316.89	0.585
317.10	0.582
317.31	0.583
317.52	0.583
317.73	0.585
317.94	0.585
318.15	0.582
318.36	0.585
318.57	0.588
318.78	0.591
318.99	0.585
319.20	0.588
319.41	0.588
319.62	0.588
319.83	0.591
320.04	0.589
320.25	0.587
320.46	0.590
320.67	0.588
320.88	0.586
321.09	0.585
321.30	0.587
321.51	0.583
321.72	0.584
321.93	0.584
322.14	0.580
322.35	0.578
322.56	0.579
322.77	0.577
322.98	0.576
323.19	0.572
323.40	0.570
323.61	0.570
323.82	0.569
324.03	0.569
324.24	0.571
324.45	0.570
324.66	0.574
324.87	0.574
325.08	0.574
325.29	0.577
325.50	0.579
325.71	0.580
325.92	0.579
326.13	0.580
326.34	0.580
326.55	0.580
326.76	0.581
326.97	0.579
327.18	0.582
327.39	0.580
327.60	0.576
327.80	0.574
328.01	0.572
328.22	0.574
328.43	0.573
328.64	0.571
328.85	0.569
329.06	0.567
329.27	0.568
329.48	0.565
329.69	0.567
329.90	0.567
330.11	0.570
330.32	0.571
330.53	0.567
330.74	0.566
330.95	0.566
331.16	0.566
331.37	0.567
331.58	0.564
331.79	0.565
332.00	0.562
332.21	0.564
332.42	0.562
332.63	0.563
332.83	0.566
333.04	0.570
333.25	0.567
333.46	0.570
333.67	0.568
333.88	0.569
334.09	0.567
334.30	0.570
334.51	0.571
334.72	0.571
334.93	0.571
335.14	0.568
335.35	0.563
335.56	0.565
335.77	0.561
335.98	0.564
336.18	0.562
336.39	0.562
336.60	0.560
336.81	0.561
337.02	0.559
337.23	0.557
337.44	0.557
337.65	0.558
337.86	0.557
338.07	0.558
338.28	0.555
338.49	0.557
338.70	0.557
338.91	0.557
339.11	0.555
339.32	0.556
339.53	0.559
339.74	0.561
339.95	0.561
340.16	0.563
340.37	0.564
340.58	0.567
340.79	0.563
341.00	0.563
341.21	0.562
341.41	0.560
341.62	0.560
341.83	0.557
342.04	0.555
342.25	0.555
342.46	0.551
342.67	0.552
342.88	0.551
343.09	0.551
343.30	0.549
343.50	0.549
343.71	0.549
343.92	0.549
344.13	0.549
344.34	0.548
344.55	0.548
344.76	0.550
344.97	0.547
345.18	0.548
345.38	0.547
345.59	0.551
345.80	0.551
346.01	0.555
346.22	0.556
346.43	0.556
346.64	0.554
346.85	0.555
347.06	0.555
347.26	0.554
347.47	0.552
347.68	0.556
347.89	0.552
348.10	0.554
348.31	0.549
348.52	0.549
348.73	0.548
348.93	0.550
349.14	0.550
349.35	0.551
349.56	0.551
349.77	0.552
349.98	0.551
350.19	0.552
350.39	0.552
350.60	0.556
350.81	0.552
351.02	0.553
351.23	0.552
351.44	0.550
351.65	0.550
351.86	0.551
352.06	0.549
352.27	0.547
352.48	0.547
352.69	0.548
352.90	0.545
353.11	0.546
353.31	0.545
353.52	0.548
353.73	0.549
353.94	0.547
354.15	0.546
354.36	0.546
354.57	0.547
354.77	0.546
354.98	0.545
355.19	0.546
355.40	0.546
355.61	0.546
355.82	0.543
356.02	0.543
356.23	0.542
356.44	0.543
356.65	0.543
356.86	0.541
357.07	0.541
357.27	0.540
357.48	0.538
357.69	0.539
357.90	0.539
358.11	0.540
358.32	0.540
358.52	0.539
358.73	0.539
358.94	0.538
359.15	0.540
359.36	0.538
359.56	0.539
359.77	0.540
359.98	0.538
360.19	0.539
360.40	0.539
360.61	0.540
360.81	0.539
361.02	0.538
361.23	0.539
361.44	0.540
361.65	0.541
361.85	0.540
362.06	0.542
362.27	0.542
362.48	0.542
362.69	0.540
362.89	0.540
363.10	0.542
363.31	0.542
363.52	0.542
363.73	0.540
363.93	0.542
364.14	0.542
364.35	0.540
364.56	0.543
364.77	0.543
364.97	0.544
365.18	0.542
365.39	0.542
365.60	0.542
365.81	0.543
366.01	0.543
366.22	0.540
366.43	0.540
366.64	0.540
366.84	0.536
367.05	0.535
367.26	0.534
367.47	0.535
367.68	0.533
367.88	0.534
368.09	0.534
368.30	0.533
368.51	0.533
368.71	0.532
368.92	0.531
369.13	0.534
369.34	0.536
369.55	0.536
369.75	0.535
369.96	0.534
370.17	0.535
370.38	0.536
370.58	0.537
370.79	0.536
371.00	0.537
371.21	0.538
371.41	0.535
371.62	0.534
371.83	0.536
372.04	0.533
372.24	0.535
372.45	0.532
372.66	0.531
372.87	0.533
373.07	0.533
373.28	0.533
373.49	0.531
373.70	0.532
373.90	0.532
374.11	0.531
374.32	0.532
374.53	0.531
374.73	0.533
374.94	0.533
375.15	0.531
375.36	0.531
375.56	0.530
375.77	0.530
375.98	0.529
376.19	0.528
376.39	0.531
376.60	0.530
376.81	0.529
377.02	0.529
377.22	0.531
377.43	0.531
377.64	0.532
377.84	0.532
378.05	0.532
378.26	0.531
378.47	0.532
378.67	0.531
378.88	0.531
379.09	0.530
379.30	0.529
379.50	0.528
379.71	0.527
379.92	0.526
380.12	0.526
380.33	0.528
380.54	0.528
380.75	0.526
380.95	0.526
381.16	0.527
381.37	0.527
381.57	0.527
381.78	0.527
381.99	0.526
382.20	0.527
382.40	0.528
382.61	0.527
382.82	0.528
383.02	0.529
383.23	0.529
383.44	0.529
383.64	0.530
383.85	0.528
384.06	0.528
384.27	0.528
384.47	0.529
384.68	0.528
384.89	0.527
385.09	0.527
385.30	0.527
385.51	0.528
385.71	0.527
385.92	0.526
386.13	0.525
386.33	0.526
386.54	0.526
386.75	0.525
386.95	0.526
387.16	0.527
387.37	0.527
387.58	0.526
387.78	0.526
387.99	0.526
388.20	0.525
388.40	0.527
388.61	0.525
388.82	0.526
389.02	0.525
389.23	0.524
389.44	0.524
389.64	0.525
389.85	0.523
390.06	0.521
390.26	0.520
390.47	0.521
390.68	0.521
390.88	0.523
391.09	0.521
391.30	0.523
391.50	0.523
391.71	0.523
391.92	0.521
392.12	0.522
392.33	0.523
392.53	0.522
392.74	0.522
392.95	0.520
393.15	0.520
393.36	0.520
393.57	0.519
393.77	0.519
393.98	0.518
394.19	0.519
394.39	0.518
394.60	0.516
394.81	0.517
395.01	0.518
395.22	0.518
395.43	0.517
395.63	0.516
395.84	0.514
396.04	0.516
396.25	0.515
396.46	0.515
396.66	0.515
396.87	0.515
397.08	0.515
397.28	0.516
397.49	0.515
397.69	0.516
397.90	0.517
398.11	0.517
398.31	0.516
398.52	0.516
398.73	0.517
398.93	0.517
399.14	0.517
399.34	0.517
399.55	0.517
399.76	0.517
399.96	0.515
400.17	0.516
400.37	0.516
400.58	0.516
400.79	0.516
400.99	0.514
401.20	0.513
401.41	0.513
401.61	0.512
401.82	0.511
402.02	0.512
402.23	0.513
402.44	0.513
402.64	0.511
402.85	0.511
403.05	0.512
403.26	0.513
403.47	0.513
403.67	0.512
403.88	0.512
404.08	0.512
404.29	0.512
404.50	0.512
404.70	0.512
404.91	0.513
405.11	0.513
405.32	0.514
405.52	0.514
405.73	0.514
405.94	0.514
406.14	0.513
406.35	0.514
406.55	0.514
406.76	0.512
406.97	0.512
407.17	0.512
407.38	0.513
407.58	0.512
407.79	0.511
407.99	0.510
408.20	0.509
408.41	0.509
408.61	0.510
408.82	0.509
409.02	0.509
409.23	0.510
409.43	0.509
409.64	0.507
409.84	0.508
410.05	0.508
410.26	0.509
410.46	0.510
410.67	0.510
410.87	0.510
411.08	0.508
411.28	0.507
411.49	0.507
411.69	0.507
411.90	0.509
412.11	0.508
412.31	0.508
412.52	0.508
412.72	0.507
412.93	0.507
413.13	0.508
413.34	0.509
413.54	0.509
413.75	0.510
413.95	0.511
414.16	0.510
414.37	0.509
414.57	0.510
414.78	0.510
414.98	0.510
415.19	0.510
415.39	0.509
415.60	0.508
415.80	0.508
416.01	0.507
416.21	0.506
416.42	0.506
416.62	0.506
416.83	0.505
417.03	0.505
417.24	0.505
417.44	0.504
417.65	0.505
417.86	0.506
418.06	0.507
418.27	0.506
418.47	0.506
418.68	0.506
418.88	0.505
419.09	0.505
419.29	0.505
419.50	0.505
419.70	0.506
419.91	0.506
420.11	0.506
420.32	0.505
420.52	0.507
420.73	0.506
420.93	0.505
421.14	0.507
421.34	0.507
421.55	0.508
421.75	0.507
421.96	0.507
422.16	0.506
422.37	0.506
422.57	0.506
422.78	0.505
422.98	0.506
423.19	0.508
423.39	0.507
423.60	0.506
423.80	0.505
424.01	0.505
424.21	0.505
424.42	0.505
424.62	0.505
424.83	0.505
425.03	0.505
425.23	0.504
425.44	0.503
425.64	0.501
425.85	0.501
426.05	0.502
426.26	0.501
426.46	0.501
426.67	0.500
426.87	0.499
427.08	0.499
427.28	0.500
427.49	0.499
427.69	0.499
427.90	0.499
428.10	0.501
428.31	0.502
428.51	0.503
428.71	0.504
428.92	0.503
429.12	0.505
429.33	0.505
429.53	0.505
429.74	0.505
429.94	0.505
430.15	0.507
430.35	0.505
430.56	0.505
430.76	0.504
430.96	0.505
431.17	0.506
431.37	0.506
431.58	0.506
431.78	0.506
431.99	0.506
432.19	0.505
432.40	0.505
432.60	0.506
432.80	0.506
433.01	0.507
433.21	0.506
433.42	0.506
433.62	0.506
433.83	0.506
434.03	0.506
434.23	0.505
434.44	0.505
434.64	0.505
434.85	0.504
435.05	0.506
435.26	0.505
435.46	0.506
435.66	0.505
435.87	0.505
436.07	0.504
436.28	0.506
436.48	0.507
436.69	0.508
436.89	0.508
437.09	0.508
437.30	0.507
437.50	0.507
437.71	0.505
437.91	0.505
438.11	0.506
438.32	0.505
438.52	0.504
438.73	0.503
438.93	0.504
439.13	0.504
439.34	0.504
439.54	0.504
439.75	0.505
439.95	0.506
440.15	0.506
440.36	0.505
440.56	0.506
440.77	0.507
440.97	0.507
441.17	0.506
441.38	0.506
441.58	0.507
441.79	0.507
441.99	0.507
442.19	0.506
442.40	0.506
442.60	0.506
442.81	0.506
443.01	0.506
443.21	0.506
443.42	0.507
443.62	0.506
443.82	0.506
444.03	0.507
444.23	0.506
444.44	0.506
444.64	0.507
444.84	0.508
445.05	0.509
445.25	0.509
445.45	0.508
445.66	0.506
445.86	0.508
446.06	0.507
446.27	0.506
446.47	0.505
446.68	0.506
446.88	0.505
447.08	0.504
447.29	0.504
447.49	0.505
447.69	0.504
447.90	0.505
448.10	0.503
448.30	0.503
448.51	0.503
448.71	0.504
448.91	0.503
449.12	0.505
449.32	0.504
449.52	0.504
449.73	0.502
449.93	0.503
450.14	0.503
450.34	0.503
450.54	0.502
450.75	0.503
450.95	0.502
451.15	0.502
451.36	0.501
451.56	0.503
451.76	0.503
451.97	0.504
452.17	0.504
452.37	0.504
452.58	0.506
452.78	0.508
452.98	0.508
453.19	0.509
453.39	0.508
453.59	0.508
453.79	0.507
454.00	0.507
454.20	0.507
454.40	0.508
454.61	0.508
454.81	0.507
455.01	0.506
455.22	0.505
455.42	0.505
455.62	0.505
455.83	0.505
456.03	0.504
456.23	0.504
456.44	0.504
456.64	0.504
456.84	0.503
457.04	0.505
457.25	0.506
457.45	0.507
457.65	0.507
457.86	0.508
458.06	0.509
458.26	0.510
458.47	0.510
458.67	0.510
458.87	0.509
459.07	0.509
459.28	0.506
459.48	0.505
459.68	0.505
459.89	0.504
460.09	0.503
460.29	0.503
460.49	0.501
460.70	0.502
460.90	0.502
461.10	0.502
461.31	0.503
461.51	0.504
461.71	0.506
461.91	0.506
462.12	0.508
462.32	0.508
462.52	0.508
462.72	0.508
