SpectraSuite Data File
++++++++++++++++++++++++++++++++++++
Date: Fri Jun 19 15:48:46 CEST 2015
User: introlabs
Dark Spectrum Present: Yes
Reference Spectrum Present: Yes
Number of Sampled Component Spectra: 1
Spectrometers: USB4H08886
Integration Time (usec): 745692 (USB4H08886)
Spectra Averaged: 5 (USB4H08886)
Boxcar Smoothing: 5 (USB4H08886)
Correct for Electrical Dark: Yes (USB4H08886)
Strobe/Lamp Enabled: No (USB4H08886)
Correct for Detector Non-linearity: Yes (USB4H08886)
Correct for Stray Light: Yes (USB4H08886)
Number of Pixels in Processed Spectrum: 3648
>>>>>Begin Processed Spectral Data<<<<<
178.14	-0.000
178.36	-0.000
178.57	-0.000
178.79	-0.000
179.01	-0.000
179.22	-0.000
179.44	-0.000
179.65	-0.000
179.87	-0.000
180.08	-0.000
180.30	-0.000
180.52	-0.000
180.73	-0.000
180.95	-0.000
181.16	-0.000
181.38	-0.000
181.59	-0.000
181.81	-0.000
182.03	-0.000
182.24	-0.000
182.46	-0.000
182.67	-0.000
182.89	-0.000
183.10	-0.000
183.32	-0.000
183.54	-0.000
183.75	-0.000
183.97	-0.000
184.18	-0.000
184.40	-0.000
184.61	-0.000
184.83	-0.000
185.04	-0.000
185.26	-0.000
185.48	-0.000
185.69	-0.000
185.91	-0.000
186.12	-0.000
186.34	-0.000
186.55	-0.000
186.77	-0.000
186.98	-0.000
187.20	-0.000
187.42	-0.000
187.63	-0.000
187.85	-0.000
188.06	-0.000
188.28	-0.000
188.49	-0.000
188.71	-0.000
188.92	-0.000
189.14	-0.000
189.36	-0.000
189.57	-0.000
189.79	-0.000
190.00	-0.000
190.22	-0.000
190.43	-0.000
190.65	-0.000
190.86	-0.000
191.08	-0.000
191.29	-0.000
191.51	-0.000
191.72	-0.000
191.94	-0.000
192.16	-0.000
192.37	-0.000
192.59	-0.000
192.80	-0.000
193.02	-0.000
193.23	-0.000
193.45	-0.000
193.66	-0.000
193.88	-0.000
194.09	-0.000
194.31	-0.000
194.52	-0.000
194.74	-0.000
194.95	-0.000
195.17	-0.000
195.38	-0.000
195.60	-0.000
195.81	-0.000
196.03	-0.000
196.25	-0.000
196.46	-0.000
196.68	-0.000
196.89	-0.000
197.11	-0.000
197.32	-0.000
197.54	-0.000
197.75	-0.000
197.97	-0.000
198.18	-0.000
198.40	-0.000
198.61	-0.000
198.83	-0.000
199.04	-0.000
199.26	-0.000
199.47	-0.000
199.69	-0.000
199.90	-0.000
200.12	-0.000
200.33	-0.000
200.55	-0.000
200.76	-0.000
200.98	-0.000
201.19	-0.000
201.41	-0.000
201.62	-0.000
201.84	-0.000
202.05	-0.000
202.27	-0.000
202.48	-0.000
202.70	-0.000
202.91	-0.000
203.13	-0.000
203.34	-0.000
203.56	-0.000
203.77	-0.000
203.99	-0.000
204.20	-0.000
204.42	-0.000
204.63	-0.000
204.85	-0.000
205.06	-0.000
205.28	-0.000
205.49	-0.000
205.71	-0.000
205.92	-0.000
206.14	-0.000
206.35	-0.000
206.56	-0.000
206.78	-0.000
206.99	-0.000
207.21	-0.000
207.42	-0.000
207.64	-0.000
207.85	-0.000
208.07	-0.000
208.28	-0.000
208.50	-0.000
208.71	-0.000
208.93	-0.000
209.14	-0.000
209.36	-0.000
209.57	-0.000
209.79	-0.000
210.00	-0.000
210.22	-0.000
210.43	-0.000
210.64	-0.000
210.86	-0.000
211.07	-0.000
211.29	-0.000
211.50	-0.000
211.72	-0.000
211.93	-0.000
212.15	-0.000
212.36	-0.000
212.58	-0.000
212.79	-0.000
213.01	-0.000
213.22	-0.000
213.43	-0.000
213.65	-0.000
213.86	-0.000
214.08	-0.000
214.29	-0.000
214.51	-0.000
214.72	-0.000
214.94	-0.000
215.15	-0.000
215.36	-0.000
215.58	-0.000
215.79	-0.000
216.01	-0.000
216.22	-0.000
216.44	-0.000
216.65	-0.000
216.87	-0.000
217.08	-0.000
217.29	-0.000
217.51	-0.000
217.72	-0.000
217.94	-0.000
218.15	-0.000
218.37	-0.000
218.58	-0.000
218.80	-0.000
219.01	-0.000
219.22	-0.000
219.44	-0.000
219.65	-0.000
219.87	-0.000
220.08	-0.000
220.30	-0.000
220.51	-0.000
220.72	-0.000
220.94	-0.000
221.15	-0.000
221.37	-0.000
221.58	-0.000
221.79	-0.000
222.01	-0.000
222.22	-0.000
222.44	-0.000
222.65	-0.000
222.87	-0.000
223.08	-0.000
223.29	-0.000
223.51	-0.000
223.72	-0.000
223.94	-0.000
224.15	-0.000
224.36	-0.000
224.58	-0.000
224.79	-0.000
225.01	-0.000
225.22	-0.000
225.44	-0.000
225.65	-0.000
225.86	-0.000
226.08	-0.000
226.29	-0.000
226.51	-0.000
226.72	-0.000
226.93	-0.000
227.15	-0.000
227.36	-0.000
227.58	-0.000
227.79	-0.000
228.00	-0.000
228.22	-0.000
228.43	-0.000
228.65	-0.000
228.86	-0.000
229.07	-0.000
229.29	-0.000
229.50	-0.000
229.72	-0.000
229.93	-0.000
230.14	-0.000
230.36	-0.000
230.57	-0.000
230.78	-0.000
231.00	-0.000
231.21	-0.000
231.43	-0.000
231.64	-0.000
231.85	-0.000
232.07	-0.000
232.28	-0.000
232.50	-0.000
232.71	-0.000
232.92	-0.000
233.14	-0.000
233.35	-0.000
233.56	-0.000
233.78	-0.000
233.99	-0.000
234.21	-0.000
234.42	-0.000
234.63	-0.000
234.85	-0.000
235.06	-0.000
235.27	-0.000
235.49	-0.000
235.70	-0.000
235.91	-0.000
236.13	-0.000
236.34	-0.000
236.56	-0.000
236.77	-0.000
236.98	-0.000
237.20	-0.000
237.41	-0.000
237.62	-0.000
237.84	-0.000
238.05	-0.000
238.26	-0.000
238.48	-0.000
238.69	-0.000
238.91	-0.000
239.12	-0.000
239.33	-0.000
239.55	-0.000
239.76	-0.000
239.97	-0.000
240.19	-0.000
240.40	-0.000
240.61	-0.000
240.83	-0.000
241.04	-0.000
241.25	-0.000
241.47	-0.000
241.68	-0.000
241.89	-0.000
242.11	-0.000
242.32	-0.000
242.53	-0.000
242.75	-0.000
242.96	-0.000
243.17	-0.000
243.39	-0.000
243.60	-0.000
243.81	-0.000
244.03	-0.000
244.24	-0.000
244.45	-0.000
244.67	-0.000
244.88	-0.000
245.09	-0.000
245.31	-0.000
245.52	-0.000
245.73	-0.000
245.95	-0.000
246.16	-0.000
246.37	-0.000
246.59	-0.000
246.80	-0.000
247.01	-0.000
247.23	-0.000
247.44	-0.000
247.65	-0.000
247.87	-0.000
248.08	-0.000
248.29	-0.000
248.51	-0.000
248.72	-0.000
248.93	-0.000
249.15	-0.000
249.36	-0.000
249.57	-0.000
249.78	-0.000
250.00	-0.000
250.21	-0.000
250.42	-0.000
250.64	-0.000
250.85	-0.000
251.06	-0.000
251.28	-0.000
251.49	-0.000
251.70	-0.000
251.92	-0.000
252.13	-0.000
252.34	-0.000
252.55	-0.000
252.77	-0.000
252.98	-0.000
253.19	-0.000
253.41	-0.000
253.62	-0.000
253.83	-0.000
254.05	-0.000
254.26	-0.000
254.47	-0.000
254.68	-0.000
254.90	-0.000
255.11	-0.000
255.32	-0.000
255.54	-0.000
255.75	-0.000
255.96	-0.000
256.17	-0.000
256.39	-0.000
256.60	-0.000
256.81	-0.000
257.03	-0.000
257.24	-0.000
257.45	-0.000
257.66	-0.000
257.88	-0.000
258.09	-0.000
258.30	-0.000
258.51	-0.000
258.73	-0.000
258.94	-0.000
259.15	-0.000
259.37	-0.000
259.58	-0.000
259.79	-0.000
260.00	-0.000
260.22	-0.000
260.43	-0.000
260.64	-0.000
260.85	-0.000
261.07	-0.000
261.28	-0.000
261.49	-0.000
261.71	-0.000
261.92	-0.000
262.13	-0.000
262.34	-0.000
262.56	-0.000
262.77	-0.000
262.98	-0.000
263.19	-0.000
263.41	-0.000
263.62	-0.000
263.83	-0.000
264.04	-0.000
264.26	-0.000
264.47	-0.000
264.68	-0.000
264.89	-0.000
265.11	-0.000
265.32	-0.000
265.53	-0.000
265.74	-0.000
265.96	-0.000
266.17	-0.000
266.38	-0.000
266.59	-0.000
266.81	-0.000
267.02	-0.000
267.23	-0.000
267.44	-0.000
267.65	-0.000
267.87	-0.000
268.08	-0.000
268.29	-0.000
268.50	-0.000
268.72	-0.000
268.93	-0.000
269.14	-0.000
269.35	-0.000
269.57	-0.000
269.78	-0.000
269.99	-0.000
270.20	-0.000
270.41	-0.000
270.63	-0.000
270.84	-0.000
271.05	-0.000
271.26	-0.000
271.48	-0.000
271.69	-0.000
271.90	-0.000
272.11	-0.000
272.32	-0.000
272.54	-0.000
272.75	-0.000
272.96	-0.000
273.17	-0.000
273.39	-0.000
273.60	-0.000
273.81	-0.000
274.02	-0.000
274.23	-0.000
274.45	-0.000
274.66	-0.000
274.87	-0.000
275.08	-0.000
275.29	-0.000
275.51	-0.000
275.72	-0.000
275.93	-0.000
276.14	-0.000
276.35	-0.000
276.57	-0.000
276.78	-0.000
276.99	-0.000
277.20	-0.000
277.41	-0.000
277.63	-0.000
277.84	-0.000
278.05	-0.000
278.26	-0.000
278.47	-0.000
278.69	-0.000
278.90	-0.000
279.11	-0.000
279.32	-0.000
279.53	-0.000
279.74	-0.000
279.96	-0.000
280.17	-0.000
280.38	-0.000
280.59	-0.000
280.80	-0.000
281.02	-0.000
281.23	-0.000
281.44	-0.000
281.65	-0.000
281.86	-0.000
282.07	-0.000
282.29	-0.000
282.50	-0.000
282.71	-0.000
282.92	-0.000
283.13	-0.000
283.35	-0.000
283.56	-0.000
283.77	-0.000
283.98	-0.000
284.19	-0.000
284.40	-0.000
284.62	-0.000
284.83	-0.000
285.04	-0.000
285.25	-0.000
285.46	-0.000
285.67	-0.000
285.88	-0.000
286.10	-0.000
286.31	-0.000
286.52	-0.000
286.73	-0.000
286.94	-0.000
287.15	-0.000
287.37	-0.000
287.58	-0.000
287.79	-0.000
288.00	-0.000
288.21	-0.000
288.42	-0.000
288.63	-0.000
288.85	-0.000
289.06	-0.000
289.27	-0.000
289.48	-0.000
289.69	-0.000
289.90	-0.000
290.11	-0.000
290.33	-0.000
290.54	-0.000
290.75	-0.000
290.96	-0.000
291.17	-0.000
291.38	-0.000
291.59	-0.000
291.81	-0.000
292.02	-0.000
292.23	-0.000
292.44	-0.000
292.65	2.819
292.86	-0.000
293.07	-0.000
293.28	2.218
293.50	2.562
293.71	-0.000
293.92	3.043
294.13	-0.000
294.34	-0.000
294.55	-0.000
294.76	-0.000
294.97	3.201
295.19	-0.000
295.40	-0.000
295.61	-0.000
295.82	2.972
296.03	2.331
296.24	2.380
296.45	1.840
296.66	1.637
296.87	1.648
297.09	1.676
297.30	1.789
297.51	1.577
297.72	1.560
297.93	1.611
298.14	1.586
298.35	1.563
298.56	1.549
298.77	1.626
298.99	1.606
299.20	1.602
299.41	1.583
299.62	1.535
299.83	1.525
300.04	1.487
300.25	1.478
300.46	1.505
300.67	1.479
300.88	1.442
301.10	1.447
301.31	1.502
301.52	1.455
301.73	1.421
301.94	1.426
302.15	1.430
302.36	1.391
302.57	1.349
302.78	1.354
302.99	1.386
303.20	1.406
303.41	1.336
303.63	1.318
303.84	1.322
304.05	1.317
304.26	1.269
304.47	1.274
304.68	1.274
304.89	1.265
305.10	1.235
305.31	1.224
305.52	1.256
305.73	1.251
305.94	1.222
306.15	1.210
306.37	1.229
306.58	1.236
306.79	1.217
307.00	1.236
307.21	1.269
307.42	1.261
307.63	1.235
307.84	1.206
308.05	1.237
308.26	1.237
308.47	1.222
308.68	1.219
308.89	1.216
309.10	1.212
309.31	1.179
309.52	1.169
309.73	1.179
309.95	1.173
310.16	1.147
310.37	1.137
310.58	1.149
310.79	1.149
311.00	1.147
311.21	1.150
311.42	1.148
311.63	1.144
311.84	1.133
312.05	1.131
312.26	1.150
312.47	1.162
312.68	1.141
312.89	1.126
313.10	1.129
313.31	1.105
313.52	1.108
313.73	1.110
313.94	1.111
314.15	1.095
314.36	1.078
314.57	1.070
314.78	1.058
314.99	1.053
315.21	1.045
315.42	1.050
315.63	1.059
315.84	1.039
316.05	1.028
316.26	1.035
316.47	1.049
316.68	1.047
316.89	1.032
317.10	1.050
317.31	1.054
317.52	1.055
317.73	1.039
317.94	1.038
318.15	1.078
318.36	1.077
318.57	1.062
318.78	1.051
318.99	1.078
319.20	1.076
319.41	1.048
319.62	1.049
319.83	1.063
320.04	1.057
320.25	1.047
320.46	1.015
320.67	1.016
320.88	1.013
321.09	1.002
321.30	0.990
321.51	1.004
321.72	1.001
321.93	0.987
322.14	0.978
322.35	1.000
322.56	1.003
322.77	0.993
322.98	1.004
323.19	1.008
323.40	1.014
323.61	0.996
323.82	0.990
324.03	0.995
324.24	0.993
324.45	0.982
324.66	0.964
324.87	0.958
325.08	0.958
325.29	0.942
325.50	0.935
325.71	0.940
325.92	0.947
326.13	0.935
326.34	0.935
326.55	0.942
326.76	0.942
326.97	0.935
327.18	0.931
327.39	0.953
327.60	0.954
327.80	0.956
328.01	0.954
328.22	0.952
328.43	0.955
328.64	0.945
328.85	0.950
329.06	0.951
329.27	0.949
329.48	0.946
329.69	0.929
329.90	0.936
330.11	0.930
330.32	0.926
330.53	0.920
330.74	0.919
330.95	0.917
331.16	0.904
331.37	0.911
331.58	0.911
331.79	0.910
332.00	0.902
332.21	0.897
332.42	0.899
332.63	0.890
332.83	0.888
333.04	0.889
333.25	0.900
333.46	0.900
333.67	0.888
333.88	0.891
334.09	0.900
334.30	0.897
334.51	0.889
334.72	0.886
334.93	0.888
335.14	0.887
335.35	0.882
335.56	0.878
335.77	0.883
335.98	0.882
336.18	0.876
336.39	0.869
336.60	0.871
336.81	0.870
337.02	0.871
337.23	0.875
337.44	0.876
337.65	0.877
337.86	0.868
338.07	0.864
338.28	0.867
338.49	0.865
338.70	0.861
338.91	0.867
339.11	0.874
339.32	0.870
339.53	0.861
339.74	0.858
339.95	0.854
340.16	0.852
340.37	0.846
340.58	0.844
340.79	0.846
341.00	0.846
341.21	0.836
341.41	0.836
341.62	0.836
341.83	0.837
342.04	0.833
342.25	0.844
342.46	0.847
342.67	0.847
342.88	0.841
343.09	0.841
343.30	0.846
343.50	0.849
343.71	0.840
343.92	0.838
344.13	0.840
344.34	0.839
344.55	0.824
344.76	0.823
344.97	0.826
345.18	0.826
345.38	0.824
345.59	0.819
345.80	0.819
346.01	0.817
346.22	0.814
346.43	0.810
346.64	0.817
346.85	0.817
347.06	0.810
347.26	0.809
347.47	0.811
347.68	0.806
347.89	0.803
348.10	0.797
348.31	0.803
348.52	0.803
348.73	0.801
348.93	0.798
349.14	0.799
349.35	0.800
349.56	0.796
349.77	0.793
349.98	0.797
350.19	0.796
350.39	0.792
350.60	0.788
350.81	0.802
351.02	0.801
351.23	0.797
351.44	0.800
351.65	0.802
351.86	0.799
352.06	0.798
352.27	0.798
352.48	0.797
352.69	0.797
352.90	0.793
353.11	0.780
353.31	0.786
353.52	0.783
353.73	0.775
353.94	0.777
354.15	0.782
354.36	0.781
354.57	0.773
354.77	0.776
354.98	0.775
355.19	0.775
355.40	0.775
355.61	0.780
355.82	0.783
356.02	0.782
356.23	0.776
356.44	0.777
356.65	0.780
356.86	0.781
357.07	0.775
357.27	0.779
357.48	0.780
357.69	0.776
357.90	0.762
358.11	0.758
358.32	0.761
358.52	0.764
358.73	0.755
358.94	0.757
359.15	0.761
359.36	0.762
359.56	0.758
359.77	0.756
359.98	0.763
360.19	0.763
360.40	0.761
360.61	0.762
360.81	0.760
361.02	0.762
361.23	0.755
361.44	0.753
361.65	0.753
361.85	0.752
362.06	0.750
362.27	0.751
362.48	0.750
362.69	0.751
362.89	0.747
363.10	0.749
363.31	0.752
363.52	0.754
363.73	0.750
363.93	0.749
364.14	0.750
364.35	0.752
364.56	0.743
364.77	0.745
364.97	0.747
365.18	0.747
365.39	0.743
365.60	0.740
365.81	0.741
366.01	0.740
366.22	0.738
366.43	0.737
366.64	0.738
366.84	0.743
367.05	0.741
367.26	0.740
367.47	0.741
367.68	0.741
367.88	0.740
368.09	0.738
368.30	0.740
368.51	0.740
368.71	0.741
368.92	0.744
369.13	0.742
369.34	0.741
369.55	0.741
369.75	0.741
369.96	0.746
370.17	0.745
370.38	0.743
370.58	0.742
370.79	0.746
371.00	0.745
371.21	0.737
371.41	0.743
371.62	0.746
371.83	0.742
372.04	0.740
372.24	0.733
372.45	0.734
372.66	0.734
372.87	0.731
373.07	0.728
373.28	0.728
373.49	0.732
373.70	0.723
373.90	0.722
374.11	0.730
374.32	0.730
374.53	0.730
374.73	0.730
374.94	0.732
375.15	0.733
375.36	0.731
375.56	0.740
375.77	0.739
375.98	0.740
376.19	0.738
376.39	0.733
376.60	0.736
376.81	0.735
377.02	0.734
377.22	0.733
377.43	0.733
377.64	0.734
377.84	0.726
378.05	0.730
378.26	0.736
378.47	0.735
378.67	0.732
378.88	0.730
379.09	0.730
379.30	0.731
379.50	0.729
379.71	0.731
379.92	0.733
380.12	0.732
380.33	0.724
380.54	0.720
380.75	0.727
380.95	0.727
381.16	0.725
381.37	0.725
381.57	0.726
381.78	0.726
381.99	0.726
382.20	0.726
382.40	0.728
382.61	0.729
382.82	0.727
383.02	0.720
383.23	0.723
383.44	0.723
383.64	0.722
383.85	0.724
384.06	0.727
384.27	0.725
384.47	0.724
384.68	0.725
384.89	0.730
385.09	0.730
385.30	0.730
385.51	0.729
385.71	0.732
385.92	0.732
386.13	0.731
386.33	0.733
386.54	0.734
386.75	0.733
386.95	0.729
387.16	0.725
387.37	0.727
387.58	0.727
387.78	0.725
387.99	0.723
388.20	0.725
388.40	0.723
388.61	0.719
388.82	0.722
389.02	0.723
389.23	0.723
389.44	0.721
389.64	0.722
389.85	0.732
390.06	0.732
390.26	0.734
390.47	0.733
390.68	0.735
390.88	0.733
391.09	0.729
391.30	0.729
391.50	0.729
391.71	0.729
391.92	0.727
392.12	0.719
392.33	0.719
392.53	0.719
392.74	0.720
392.95	0.719
393.15	0.721
393.36	0.724
393.57	0.722
393.77	0.725
393.98	0.727
394.19	0.726
394.39	0.726
394.60	0.728
394.81	0.730
395.01	0.728
395.22	0.727
395.43	0.729
395.63	0.733
395.84	0.734
396.04	0.732
396.25	0.733
396.46	0.735
396.66	0.734
396.87	0.732
397.08	0.729
397.28	0.731
397.49	0.732
397.69	0.729
397.90	0.723
398.11	0.724
398.31	0.725
398.52	0.722
398.73	0.723
398.93	0.722
399.14	0.721
399.34	0.721
399.55	0.721
399.76	0.721
399.96	0.721
400.17	0.720
400.37	0.719
400.58	0.726
400.79	0.727
400.99	0.725
401.20	0.730
401.41	0.732
401.61	0.733
401.82	0.738
402.02	0.738
402.23	0.740
402.44	0.740
402.64	0.740
402.85	0.735
403.05	0.733
403.26	0.732
403.47	0.727
403.67	0.726
403.88	0.727
404.08	0.721
404.29	0.720
404.50	0.719
404.70	0.719
404.91	0.718
405.11	0.716
405.32	0.716
405.52	0.716
405.73	0.716
405.94	0.714
406.14	0.717
406.35	0.719
406.55	0.720
406.76	0.718
406.97	0.719
407.17	0.722
407.38	0.722
407.58	0.720
407.79	0.723
407.99	0.725
408.20	0.726
408.41	0.722
408.61	0.720
408.82	0.720
409.02	0.720
409.23	0.718
409.43	0.717
409.64	0.717
409.84	0.718
410.05	0.715
410.26	0.713
410.46	0.712
410.67	0.712
410.87	0.714
411.08	0.716
411.28	0.718
411.49	0.719
411.69	0.717
411.90	0.718
412.11	0.720
412.31	0.720
412.52	0.719
412.72	0.720
412.93	0.720
413.13	0.719
413.34	0.715
413.54	0.716
413.75	0.718
413.95	0.718
414.16	0.715
414.37	0.717
414.57	0.718
414.78	0.721
414.98	0.719
415.19	0.720
415.39	0.718
415.60	0.720
415.80	0.719
416.01	0.717
416.21	0.718
416.42	0.718
416.62	0.713
416.83	0.713
417.03	0.712
417.24	0.712
417.44	0.710
417.65	0.709
417.86	0.710
418.06	0.708
418.27	0.706
418.47	0.709
418.68	0.709
418.88	0.710
419.09	0.709
419.29	0.709
419.50	0.710
419.70	0.709
419.91	0.708
420.11	0.706
420.32	0.708
420.52	0.707
420.73	0.706
420.93	0.706
421.14	0.707
421.34	0.706
421.55	0.703
421.75	0.703
421.96	0.704
422.16	0.704
422.37	0.703
422.57	0.700
422.78	0.702
422.98	0.698
423.19	0.697
423.39	0.695
423.60	0.698
423.80	0.699
424.01	0.698
424.21	0.700
424.42	0.700
424.62	0.701
424.83	0.700
425.03	0.700
425.23	0.702
425.44	0.702
425.64	0.703
425.85	0.701
426.05	0.701
426.26	0.702
426.46	0.698
426.67	0.698
426.87	0.703
427.08	0.703
427.28	0.701
427.49	0.702
427.69	0.702
427.90	0.701
428.10	0.699
428.31	0.699
428.51	0.700
428.71	0.700
428.92	0.701
429.12	0.698
429.33	0.699
429.53	0.703
429.74	0.707
429.94	0.707
430.15	0.706
430.35	0.706
430.56	0.703
430.76	0.702
430.96	0.702
431.17	0.699
431.37	0.696
431.58	0.694
431.78	0.691
431.99	0.683
432.19	0.686
432.40	0.688
432.60	0.688
432.80	0.690
433.01	0.689
433.21	0.689
433.42	0.691
433.62	0.692
433.83	0.692
434.03	0.694
434.23	0.697
434.44	0.696
434.64	0.694
434.85	0.698
435.05	0.700
435.26	0.699
435.46	0.698
435.66	0.698
435.87	0.698
436.07	0.698
436.28	0.693
436.48	0.690
436.69	0.689
436.89	0.689
437.09	0.683
437.30	0.682
437.50	0.682
437.71	0.694
437.91	0.692
438.11	0.693
438.32	0.697
438.52	0.697
438.73	0.696
438.93	0.695
439.13	0.695
439.34	0.699
439.54	0.697
439.75	0.697
439.95	0.687
440.15	0.692
440.36	0.691
440.56	0.688
440.77	0.688
440.97	0.689
441.17	0.688
441.38	0.689
441.58	0.686
441.79	0.685
441.99	0.684
442.19	0.683
442.40	0.680
442.60	0.680
442.81	0.678
443.01	0.678
443.21	0.678
443.42	0.677
443.62	0.675
443.82	0.674
444.03	0.675
444.23	0.675
444.44	0.675
444.64	0.674
444.84	0.675
445.05	0.675
445.25	0.673
445.45	0.673
445.66	0.675
445.86	0.674
446.06	0.676
446.27	0.675
446.47	0.678
446.68	0.677
446.88	0.675
447.08	0.675
447.29	0.677
447.49	0.677
447.69	0.676
447.90	0.675
448.10	0.677
448.30	0.675
448.51	0.676
448.71	0.674
448.91	0.675
449.12	0.674
449.32	0.676
449.52	0.675
449.73	0.679
449.93	0.678
450.14	0.679
450.34	0.678
450.54	0.680
450.75	0.678
450.95	0.677
451.15	0.677
451.36	0.679
451.56	0.676
451.76	0.675
451.97	0.671
452.17	0.672
452.37	0.670
452.58	0.667
452.78	0.667
452.98	0.668
453.19	0.668
453.39	0.668
453.59	0.666
453.79	0.667
454.00	0.667
454.20	0.667
454.40	0.667
454.61	0.669
454.81	0.670
455.01	0.669
455.22	0.670
455.42	0.672
455.62	0.670
455.83	0.670
456.03	0.673
456.23	0.673
456.44	0.674
456.64	0.673
456.84	0.673
457.04	0.672
457.25	0.672
457.45	0.669
457.65	0.668
457.86	0.668
458.06	0.667
458.26	0.662
458.47	0.662
458.67	0.663
458.87	0.663
459.07	0.661
459.28	0.663
459.48	0.664
459.68	0.664
459.89	0.663
