SpectraSuite Data File
++++++++++++++++++++++++++++++++++++
Date: Fri Jun 19 17:04:49 CEST 2015
User: introlabs
Dark Spectrum Present: Yes
Reference Spectrum Present: Yes
Number of Sampled Component Spectra: 1
Spectrometers: USB4H08886
Integration Time (usec): 745692 (USB4H08886)
Spectra Averaged: 5 (USB4H08886)
Boxcar Smoothing: 5 (USB4H08886)
Correct for Electrical Dark: Yes (USB4H08886)
Strobe/Lamp Enabled: No (USB4H08886)
Correct for Detector Non-linearity: Yes (USB4H08886)
Correct for Stray Light: Yes (USB4H08886)
Number of Pixels in Processed Spectrum: 3648
>>>>>Begin Processed Spectral Data<<<<<
178.14	-0.000
178.36	-0.000
178.57	-0.000
178.79	-0.000
179.01	-0.000
179.22	-0.000
179.44	-0.000
179.65	-0.000
179.87	-0.000
180.08	-0.000
180.30	-0.000
180.52	-0.000
180.73	-0.000
180.95	-0.000
181.16	-0.000
181.38	-0.000
181.59	-0.000
181.81	-0.000
182.03	-0.000
182.24	-0.000
182.46	-0.000
182.67	-0.000
182.89	-0.000
183.10	-0.000
183.32	-0.000
183.54	-0.000
183.75	-0.000
183.97	-0.000
184.18	-0.000
184.40	-0.000
184.61	-0.000
184.83	-0.000
185.04	-0.000
185.26	-0.000
185.48	-0.000
185.69	-0.000
185.91	-0.000
186.12	-0.000
186.34	-0.000
186.55	-0.000
186.77	-0.000
186.98	-0.000
187.20	-0.000
187.42	-0.000
187.63	-0.000
187.85	-0.000
188.06	-0.000
188.28	-0.000
188.49	-0.000
188.71	-0.000
188.92	-0.000
189.14	-0.000
189.36	-0.000
189.57	-0.000
189.79	-0.000
190.00	-0.000
190.22	-0.000
190.43	-0.000
190.65	-0.000
190.86	-0.000
191.08	-0.000
191.29	-0.000
191.51	-0.000
191.72	-0.000
191.94	-0.000
192.16	-0.000
192.37	-0.000
192.59	-0.000
192.80	-0.000
193.02	-0.000
193.23	-0.000
193.45	-0.000
193.66	-0.000
193.88	-0.000
194.09	-0.000
194.31	-0.000
194.52	-0.000
194.74	-0.000
194.95	-0.000
195.17	-0.000
195.38	-0.000
195.60	-0.000
195.81	-0.000
196.03	-0.000
196.25	-0.000
196.46	-0.000
196.68	-0.000
196.89	-0.000
197.11	-0.000
197.32	-0.000
197.54	-0.000
197.75	-0.000
197.97	-0.000
198.18	-0.000
198.40	-0.000
198.61	-0.000
198.83	-0.000
199.04	-0.000
199.26	-0.000
199.47	-0.000
199.69	-0.000
199.90	-0.000
200.12	-0.000
200.33	-0.000
200.55	-0.000
200.76	-0.000
200.98	-0.000
201.19	-0.000
201.41	-0.000
201.62	-0.000
201.84	-0.000
202.05	-0.000
202.27	-0.000
202.48	-0.000
202.70	-0.000
202.91	-0.000
203.13	-0.000
203.34	-0.000
203.56	-0.000
203.77	-0.000
203.99	-0.000
204.20	-0.000
204.42	-0.000
204.63	-0.000
204.85	-0.000
205.06	-0.000
205.28	-0.000
205.49	-0.000
205.71	-0.000
205.92	-0.000
206.14	-0.000
206.35	-0.000
206.56	-0.000
206.78	-0.000
206.99	-0.000
207.21	-0.000
207.42	-0.000
207.64	-0.000
207.85	-0.000
208.07	-0.000
208.28	-0.000
208.50	-0.000
208.71	-0.000
208.93	-0.000
209.14	-0.000
209.36	-0.000
209.57	-0.000
209.79	-0.000
210.00	-0.000
210.22	-0.000
210.43	-0.000
210.64	-0.000
210.86	-0.000
211.07	-0.000
211.29	-0.000
211.50	-0.000
211.72	-0.000
211.93	-0.000
212.15	-0.000
212.36	-0.000
212.58	-0.000
212.79	-0.000
213.01	-0.000
213.22	-0.000
213.43	-0.000
213.65	-0.000
213.86	-0.000
214.08	-0.000
214.29	-0.000
214.51	-0.000
214.72	-0.000
214.94	-0.000
215.15	-0.000
215.36	-0.000
215.58	-0.000
215.79	-0.000
216.01	-0.000
216.22	-0.000
216.44	-0.000
216.65	-0.000
216.87	-0.000
217.08	-0.000
217.29	-0.000
217.51	-0.000
217.72	-0.000
217.94	-0.000
218.15	-0.000
218.37	-0.000
218.58	-0.000
218.80	-0.000
219.01	-0.000
219.22	-0.000
219.44	-0.000
219.65	-0.000
219.87	-0.000
220.08	-0.000
220.30	-0.000
220.51	-0.000
220.72	-0.000
220.94	-0.000
221.15	-0.000
221.37	-0.000
221.58	-0.000
221.79	-0.000
222.01	-0.000
222.22	-0.000
222.44	-0.000
222.65	-0.000
222.87	-0.000
223.08	-0.000
223.29	-0.000
223.51	-0.000
223.72	-0.000
223.94	-0.000
224.15	-0.000
224.36	-0.000
224.58	-0.000
224.79	-0.000
225.01	-0.000
225.22	-0.000
225.44	-0.000
225.65	-0.000
225.86	-0.000
226.08	-0.000
226.29	-0.000
226.51	-0.000
226.72	-0.000
226.93	-0.000
227.15	-0.000
227.36	-0.000
227.58	-0.000
227.79	-0.000
228.00	-0.000
228.22	-0.000
228.43	-0.000
228.65	-0.000
228.86	-0.000
229.07	-0.000
229.29	-0.000
229.50	-0.000
229.72	-0.000
229.93	-0.000
230.14	-0.000
230.36	-0.000
230.57	-0.000
230.78	-0.000
231.00	-0.000
231.21	-0.000
231.43	-0.000
231.64	-0.000
231.85	-0.000
232.07	-0.000
232.28	-0.000
232.50	-0.000
232.71	-0.000
232.92	-0.000
233.14	-0.000
233.35	-0.000
233.56	-0.000
233.78	-0.000
233.99	-0.000
234.21	-0.000
234.42	-0.000
234.63	-0.000
234.85	-0.000
235.06	-0.000
235.27	-0.000
235.49	-0.000
235.70	-0.000
235.91	-0.000
236.13	-0.000
236.34	-0.000
236.56	-0.000
236.77	-0.000
236.98	-0.000
237.20	-0.000
237.41	-0.000
237.62	-0.000
237.84	-0.000
238.05	-0.000
238.26	-0.000
238.48	-0.000
238.69	-0.000
238.91	-0.000
239.12	-0.000
239.33	-0.000
239.55	-0.000
239.76	-0.000
239.97	-0.000
240.19	-0.000
240.40	-0.000
240.61	-0.000
240.83	-0.000
241.04	-0.000
241.25	-0.000
241.47	-0.000
241.68	-0.000
241.89	-0.000
242.11	-0.000
242.32	-0.000
242.53	-0.000
242.75	-0.000
242.96	-0.000
243.17	-0.000
243.39	-0.000
243.60	-0.000
243.81	-0.000
244.03	-0.000
244.24	-0.000
244.45	-0.000
244.67	-0.000
244.88	-0.000
245.09	-0.000
245.31	-0.000
245.52	-0.000
245.73	-0.000
245.95	-0.000
246.16	-0.000
246.37	-0.000
246.59	-0.000
246.80	-0.000
247.01	-0.000
247.23	-0.000
247.44	-0.000
247.65	-0.000
247.87	-0.000
248.08	-0.000
248.29	-0.000
248.51	-0.000
248.72	-0.000
248.93	-0.000
249.15	-0.000
249.36	-0.000
249.57	-0.000
249.78	-0.000
250.00	-0.000
250.21	-0.000
250.42	-0.000
250.64	-0.000
250.85	-0.000
251.06	-0.000
251.28	-0.000
251.49	-0.000
251.70	-0.000
251.92	-0.000
252.13	-0.000
252.34	-0.000
252.55	-0.000
252.77	-0.000
252.98	-0.000
253.19	-0.000
253.41	-0.000
253.62	-0.000
253.83	-0.000
254.05	-0.000
254.26	-0.000
254.47	-0.000
254.68	-0.000
254.90	-0.000
255.11	-0.000
255.32	-0.000
255.54	-0.000
255.75	-0.000
255.96	-0.000
256.17	-0.000
256.39	-0.000
256.60	-0.000
256.81	-0.000
257.03	-0.000
257.24	-0.000
257.45	-0.000
257.66	-0.000
257.88	-0.000
258.09	-0.000
258.30	-0.000
258.51	-0.000
258.73	-0.000
258.94	-0.000
259.15	-0.000
259.37	-0.000
259.58	-0.000
259.79	-0.000
260.00	-0.000
260.22	-0.000
260.43	-0.000
260.64	-0.000
260.85	-0.000
261.07	-0.000
261.28	-0.000
261.49	-0.000
261.71	-0.000
261.92	-0.000
262.13	-0.000
262.34	-0.000
262.56	-0.000
262.77	-0.000
262.98	-0.000
263.19	-0.000
263.41	-0.000
263.62	-0.000
263.83	-0.000
264.04	-0.000
264.26	-0.000
264.47	-0.000
264.68	-0.000
264.89	-0.000
265.11	-0.000
265.32	-0.000
265.53	-0.000
265.74	-0.000
265.96	-0.000
266.17	-0.000
266.38	-0.000
266.59	-0.000
266.81	-0.000
267.02	-0.000
267.23	-0.000
267.44	-0.000
267.65	-0.000
267.87	-0.000
268.08	-0.000
268.29	-0.000
268.50	-0.000
268.72	-0.000
268.93	-0.000
269.14	-0.000
269.35	-0.000
269.57	-0.000
269.78	-0.000
269.99	-0.000
270.20	-0.000
270.41	-0.000
270.63	-0.000
270.84	-0.000
271.05	-0.000
271.26	-0.000
271.48	-0.000
271.69	-0.000
271.90	-0.000
272.11	-0.000
272.32	-0.000
272.54	-0.000
272.75	-0.000
272.96	-0.000
273.17	-0.000
273.39	-0.000
273.60	-0.000
273.81	-0.000
274.02	-0.000
274.23	-0.000
274.45	-0.000
274.66	-0.000
274.87	-0.000
275.08	-0.000
275.29	-0.000
275.51	-0.000
275.72	-0.000
275.93	-0.000
276.14	-0.000
276.35	-0.000
276.57	-0.000
276.78	-0.000
276.99	-0.000
277.20	-0.000
277.41	-0.000
277.63	-0.000
277.84	-0.000
278.05	-0.000
278.26	-0.000
278.47	-0.000
278.69	-0.000
278.90	-0.000
279.11	-0.000
279.32	-0.000
279.53	-0.000
279.74	-0.000
279.96	-0.000
280.17	-0.000
280.38	-0.000
280.59	-0.000
280.80	-0.000
281.02	-0.000
281.23	-0.000
281.44	-0.000
281.65	-0.000
281.86	-0.000
282.07	-0.000
282.29	-0.000
282.50	-0.000
282.71	-0.000
282.92	-0.000
283.13	-0.000
283.35	-0.000
283.56	-0.000
283.77	-0.000
283.98	-0.000
284.19	-0.000
284.40	-0.000
284.62	-0.000
284.83	-0.000
285.04	-0.000
285.25	-0.000
285.46	-0.000
285.67	-0.000
285.88	-0.000
286.10	-0.000
286.31	-0.000
286.52	-0.000
286.73	-0.000
286.94	-0.000
287.15	-0.000
287.37	-0.000
287.58	-0.000
287.79	-0.000
288.00	-0.000
288.21	-0.000
288.42	-0.000
288.63	-0.000
288.85	-0.000
289.06	-0.000
289.27	-0.000
289.48	-0.000
289.69	-0.000
289.90	-0.000
290.11	-0.000
290.33	-0.000
290.54	-0.000
290.75	-0.000
290.96	-0.000
291.17	-0.000
291.38	-0.000
291.59	-0.000
291.81	-0.000
292.02	-0.000
292.23	-0.000
292.44	-0.000
292.65	-0.000
292.86	-0.000
293.07	-0.000
293.28	-0.000
293.50	-0.000
293.71	-0.000
293.92	-0.000
294.13	-0.000
294.34	-0.000
294.55	-0.000
294.76	-0.000
294.97	-0.000
295.19	-0.000
295.40	-0.000
295.61	-0.000
295.82	-0.000
296.03	-0.000
296.24	-0.000
296.45	-0.000
296.66	-0.000
296.87	-0.000
297.09	-0.000
297.30	-0.000
297.51	-0.000
297.72	-0.000
297.93	-0.000
298.14	-0.000
298.35	-0.000
298.56	-0.000
298.77	-0.000
298.99	-0.000
299.20	-0.000
299.41	-0.000
299.62	-0.000
299.83	-0.000
300.04	-0.000
300.25	-0.000
300.46	-0.000
300.67	-0.000
300.88	-0.000
301.10	-0.000
301.31	-0.000
301.52	-0.000
301.73	-0.000
301.94	-0.000
302.15	-0.000
302.36	-0.000
302.57	-0.000
302.78	-0.000
302.99	-0.000
303.20	-0.000
303.41	-0.000
303.63	-0.000
303.84	-0.000
304.05	-0.000
304.26	-0.000
304.47	-0.000
304.68	-0.000
304.89	-0.000
305.10	-0.000
305.31	-0.000
305.52	-0.000
305.73	-0.000
305.94	-0.000
306.15	-0.000
306.37	-0.000
306.58	-0.000
306.79	-0.000
307.00	-0.000
307.21	-0.000
307.42	-0.000
307.63	-0.000
307.84	-0.000
308.05	-0.000
308.26	-0.000
308.47	-0.000
308.68	-0.000
308.89	-0.000
309.10	-0.000
309.31	-0.000
309.52	-0.000
309.73	-0.000
309.95	-0.000
310.16	-0.000
310.37	-0.000
310.58	-0.000
310.79	-0.000
311.00	-0.000
311.21	-0.000
311.42	-0.000
311.63	-0.000
311.84	-0.000
312.05	-0.000
312.26	-0.000
312.47	-0.000
312.68	-0.000
312.89	-0.000
313.10	-0.000
313.31	-0.000
313.52	-0.000
313.73	-0.000
313.94	-0.000
314.15	-0.000
314.36	-0.000
314.57	-0.000
314.78	-0.000
314.99	-0.000
315.21	-0.000
315.42	-0.000
315.63	-0.000
315.84	-0.000
316.05	-0.000
316.26	-0.000
316.47	-0.000
316.68	-0.000
316.89	-0.000
317.10	-0.000
317.31	-0.000
317.52	-0.000
317.73	-0.000
317.94	-0.000
318.15	-0.000
318.36	-0.000
318.57	-0.000
318.78	-0.000
318.99	-0.000
319.20	-0.000
319.41	-0.000
319.62	-0.000
319.83	-0.000
320.04	-0.000
320.25	-0.000
320.46	-0.000
320.67	-0.000
320.88	-0.000
321.09	-0.000
321.30	-0.000
321.51	-0.000
321.72	-0.000
321.93	-0.000
322.14	-0.000
322.35	-0.000
322.56	-0.000
322.77	-0.000
322.98	-0.000
323.19	-0.000
323.40	-0.000
323.61	-0.000
323.82	-0.000
324.03	-0.000
324.24	-0.000
324.45	-0.000
324.66	-0.000
324.87	-0.000
325.08	-0.000
325.29	-0.000
325.50	-0.000
325.71	-0.000
325.92	-0.000
326.13	-0.000
326.34	-0.000
326.55	-0.000
326.76	-0.000
326.97	-0.000
327.18	-0.000
327.39	-0.000
327.60	-0.000
327.80	-0.000
328.01	-0.000
328.22	-0.000
328.43	-0.000
328.64	-0.000
328.85	-0.000
329.06	-0.000
329.27	-0.000
329.48	-0.000
329.69	-0.000
329.90	-0.000
330.11	-0.000
330.32	-0.000
330.53	-0.000
330.74	-0.000
330.95	-0.000
331.16	-0.000
331.37	-0.000
331.58	-0.000
331.79	-0.000
332.00	-0.000
332.21	-0.000
332.42	-0.000
332.63	-0.000
332.83	-0.000
333.04	-0.000
333.25	-0.000
333.46	-0.000
333.67	-0.000
333.88	-0.000
334.09	-0.000
334.30	-0.000
334.51	-0.000
334.72	-0.000
334.93	-0.000
335.14	-0.000
335.35	-0.000
335.56	-0.000
335.77	-0.000
335.98	-0.000
336.18	-0.000
336.39	-0.000
336.60	-0.000
336.81	-0.000
337.02	-0.000
337.23	-0.000
337.44	-0.000
337.65	-0.000
337.86	-0.000
338.07	-0.000
338.28	-0.000
338.49	-0.000
338.70	-0.000
338.91	-0.000
339.11	-0.000
339.32	-0.000
339.53	-0.000
339.74	-0.000
339.95	-0.000
340.16	-0.000
340.37	-0.000
340.58	-0.000
340.79	-0.000
341.00	-0.000
341.21	-0.000
341.41	-0.000
341.62	-0.000
341.83	-0.000
342.04	-0.000
342.25	-0.000
342.46	-0.000
342.67	-0.000
342.88	-0.000
343.09	-0.000
343.30	-0.000
343.50	-0.000
343.71	-0.000
343.92	-0.000
344.13	-0.000
344.34	-0.000
344.55	-0.000
344.76	-0.000
344.97	-0.000
345.18	-0.000
345.38	-0.000
345.59	-0.000
345.80	-0.000
346.01	-0.000
346.22	-0.000
346.43	-0.000
346.64	-0.000
346.85	-0.000
347.06	-0.000
347.26	-0.000
347.47	-0.000
347.68	-0.000
347.89	-0.000
348.10	-0.000
348.31	-0.000
348.52	-0.000
348.73	-0.000
348.93	-0.000
349.14	-0.000
349.35	-0.000
349.56	-0.000
349.77	-0.000
349.98	-0.000
350.19	-0.000
350.39	-0.000
350.60	-0.000
350.81	-0.000
351.02	-0.000
351.23	-0.000
351.44	-0.000
351.65	-0.000
351.86	-0.000
352.06	-0.000
352.27	-0.000
352.48	-0.000
352.69	-0.000
352.90	-0.000
353.11	-0.000
353.31	-0.000
353.52	-0.000
353.73	-0.000
353.94	-0.000
354.15	-0.000
354.36	-0.000
354.57	-0.000
354.77	-0.000
354.98	-0.000
355.19	-0.000
355.40	-0.000
355.61	-0.000
355.82	-0.000
356.02	-0.000
356.23	-0.000
356.44	-0.000
356.65	-0.000
356.86	-0.000
357.07	-0.000
357.27	-0.000
357.48	-0.000
357.69	-0.000
357.90	-0.000
358.11	-0.000
358.32	-0.000
358.52	-0.000
358.73	-0.000
358.94	-0.000
359.15	-0.000
359.36	-0.000
359.56	-0.000
359.77	-0.000
359.98	-0.000
360.19	-0.000
360.40	-0.000
360.61	-0.000
360.81	-0.000
361.02	-0.000
361.23	-0.000
361.44	-0.000
361.65	-0.000
361.85	-0.000
362.06	-0.000
362.27	-0.000
362.48	-0.000
362.69	-0.000
362.89	-0.000
363.10	-0.000
363.31	-0.000
363.52	-0.000
363.73	-0.000
363.93	-0.000
364.14	-0.000
364.35	-0.000
364.56	-0.000
364.77	-0.000
364.97	-0.000
365.18	-0.000
365.39	-0.000
365.60	-0.000
365.81	-0.000
366.01	-0.000
366.22	-0.000
366.43	-0.000
366.64	-0.000
366.84	-0.000
367.05	-0.000
367.26	-0.000
367.47	-0.000
367.68	-0.000
367.88	-0.000
368.09	-0.000
368.30	-0.000
368.51	-0.000
368.71	-0.000
368.92	-0.000
369.13	-0.000
369.34	-0.000
369.55	-0.000
369.75	-0.000
369.96	-0.000
370.17	-0.000
370.38	-0.000
370.58	-0.000
370.79	-0.000
371.00	-0.000
371.21	-0.000
371.41	-0.000
371.62	-0.000
371.83	-0.000
372.04	-0.000
372.24	-0.000
372.45	-0.000
372.66	-0.000
372.87	-0.000
373.07	-0.000
373.28	-0.000
373.49	-0.000
373.70	-0.000
373.90	-0.000
374.11	-0.000
374.32	-0.000
374.53	-0.000
374.73	-0.000
374.94	-0.000
375.15	-0.000
375.36	-0.000
375.56	-0.000
375.77	-0.000
375.98	-0.000
376.19	-0.000
376.39	-0.000
376.60	-0.000
376.81	-0.000
377.02	-0.000
377.22	-0.000
377.43	-0.000
377.64	-0.000
377.84	-0.000
378.05	-0.000
378.26	-0.000
378.47	-0.000
378.67	-0.000
378.88	-0.000
379.09	-0.000
379.30	-0.000
379.50	-0.000
379.71	-0.000
379.92	-0.000
380.12	-0.000
380.33	-0.000
380.54	-0.000
380.75	-0.000
380.95	-0.000
381.16	-0.000
381.37	-0.000
381.57	-0.000
381.78	-0.000
381.99	-0.000
382.20	-0.000
382.40	-0.000
382.61	-0.000
382.82	-0.000
383.02	-0.000
383.23	-0.000
383.44	-0.000
383.64	-0.000
383.85	-0.000
384.06	-0.000
384.27	-0.000
384.47	-0.000
384.68	-0.000
384.89	-0.000
385.09	-0.000
385.30	-0.000
385.51	-0.000
385.71	-0.000
385.92	-0.000
386.13	-0.000
386.33	-0.000
386.54	-0.000
386.75	-0.000
386.95	-0.000
387.16	-0.000
387.37	-0.000
387.58	-0.000
387.78	-0.000
387.99	-0.000
388.20	-0.000
388.40	-0.000
388.61	-0.000
388.82	-0.000
389.02	-0.000
389.23	-0.000
389.44	-0.000
389.64	-0.000
389.85	-0.000
390.06	-0.000
390.26	-0.000
390.47	-0.000
390.68	-0.000
390.88	-0.000
391.09	-0.000
391.30	-0.000
391.50	-0.000
391.71	-0.000
391.92	-0.000
392.12	-0.000
392.33	-0.000
392.53	-0.000
392.74	-0.000
392.95	-0.000
393.15	-0.000
393.36	-0.000
393.57	-0.000
393.77	-0.000
393.98	-0.000
394.19	-0.000
394.39	-0.000
394.60	-0.000
394.81	-0.000
395.01	-0.000
395.22	-0.000
395.43	-0.000
395.63	-0.000
395.84	-0.000
396.04	-0.000
396.25	-0.000
396.46	-0.000
396.66	-0.000
396.87	-0.000
397.08	-0.000
397.28	-0.000
397.49	-0.000
397.69	-0.000
397.90	5.101
398.11	-0.000
398.31	-0.000
398.52	2.895
398.73	3.469
398.93	3.253
399.14	3.156
399.34	3.055
399.55	3.260
399.76	3.301
399.96	3.887
400.17	3.598
400.37	3.248
400.58	-0.000
400.79	-0.000
400.99	-0.000
401.20	-0.000
401.41	-0.000
401.61	-0.000
401.82	-0.000
402.02	-0.000
402.23	-0.000
402.44	-0.000
402.64	-0.000
402.85	-0.000
403.05	-0.000
403.26	-0.000
403.47	-0.000
403.67	-0.000
403.88	-0.000
404.08	2.640
404.29	2.529
404.50	2.508
404.70	2.526
404.91	2.484
405.11	2.387
405.32	2.409
405.52	2.404
405.73	2.406
405.94	2.381
406.14	2.510
406.35	2.605
406.55	2.624
406.76	2.516
406.97	2.578
407.17	2.765
407.38	2.820
407.58	2.785
407.79	3.230
407.99	4.711
408.20	-0.000
408.41	2.883
408.61	2.733
408.82	2.726
409.02	2.723
409.23	2.629
409.43	2.514
409.64	2.527
409.84	2.500
410.05	2.375
410.26	2.318
410.46	2.305
410.67	2.321
410.87	2.389
411.08	2.483
411.28	2.517
411.49	2.606
411.69	2.519
411.90	2.657
412.11	2.765
412.31	2.809
412.52	2.740
412.72	2.782
412.93	2.741
413.13	2.732
413.34	2.539
413.54	2.695
413.75	2.861
413.95	2.867
414.16	2.630
414.37	2.896
414.57	2.924
414.78	3.499
414.98	3.441
415.19	-0.000
415.39	2.825
415.60	3.195
415.80	3.013
416.01	2.728
416.21	2.826
416.42	2.815
416.62	2.491
416.83	2.489
417.03	2.447
417.24	2.429
417.44	2.353
417.65	2.352
417.86	2.341
418.06	2.262
418.27	2.210
418.47	2.259
418.68	2.254
418.88	2.265
419.09	2.238
419.29	2.255
419.50	2.261
419.70	2.272
419.91	2.252
420.11	2.198
420.32	2.268
420.52	2.262
420.73	2.258
420.93	2.293
421.14	2.362
421.34	2.341
421.55	2.271
421.75	2.264
421.96	2.280
422.16	2.292
422.37	2.278
422.57	2.214
422.78	2.257
422.98	2.177
423.19	2.147
423.39	2.111
423.60	2.202
423.80	2.229
424.01	2.218
424.21	2.305
424.42	2.327
424.62	2.328
424.83	2.309
425.03	2.314
425.23	2.344
425.44	2.336
425.64	2.365
425.85	2.305
426.05	2.299
426.26	2.296
426.46	2.176
426.67	2.164
426.87	2.290
427.08	2.293
427.28	2.243
427.49	2.290
427.69	2.288
427.90	2.236
428.10	2.175
428.31	2.185
428.51	2.240
428.71	2.238
428.92	2.283
429.12	2.198
429.33	2.211
429.53	2.367
429.74	2.677
429.94	2.742
430.15	2.705
430.35	2.689
430.56	2.541
430.76	2.469
430.96	2.519
431.17	2.387
431.37	2.321
431.58	2.295
431.78	2.185
431.99	2.022
432.19	2.084
432.40	2.145
432.60	2.167
432.80	2.238
433.01	2.223
433.21	2.218
433.42	2.260
433.62	2.267
433.83	2.269
434.03	2.359
434.23	2.444
434.44	2.378
434.64	2.284
434.85	2.506
435.05	2.592
435.26	2.569
435.46	2.543
435.66	2.549
435.87	2.557
436.07	2.549
436.28	2.377
436.48	2.293
436.69	2.285
436.89	2.298
437.09	2.115
437.30	2.088
437.50	2.090
437.71	2.593
437.91	2.571
438.11	2.633
438.32	3.090
438.52	3.062
438.73	3.045
438.93	2.790
439.13	2.749
439.34	-0.000
439.54	3.157
439.75	3.374
439.95	2.284
440.15	2.494
440.36	2.461
440.56	2.365
440.77	2.389
440.97	2.411
441.17	2.365
441.38	2.435
441.58	2.302
441.79	2.299
441.99	2.277
442.19	2.216
442.40	2.128
442.60	2.122
442.81	2.080
443.01	2.073
443.21	2.068
443.42	2.075
443.62	2.047
443.82	2.039
444.03	2.065
444.23	2.061
444.44	2.082
444.64	2.072
444.84	2.106
445.05	2.111
445.25	2.097
445.45	2.102
445.66	2.134
445.86	2.127
446.06	2.186
446.27	2.160
446.47	2.237
446.68	2.183
446.88	2.152
447.08	2.122
447.29	2.146
447.49	2.157
447.69	2.151
447.90	2.136
448.10	2.214
448.30	2.139
448.51	2.207
448.71	2.145
448.91	2.198
449.12	2.194
449.32	2.275
449.52	2.244
449.73	2.354
449.93	2.339
450.14	2.379
450.34	2.342
450.54	2.417
450.75	2.305
450.95	2.298
451.15	2.286
451.36	2.371
451.56	2.256
451.76	2.263
451.97	2.198
452.17	2.209
452.37	2.168
