SpectraSuite Data File
++++++++++++++++++++++++++++++++++++
Date: Fri Jun 19 14:46:40 CEST 2015
User: introlabs
Dark Spectrum Present: Yes
Reference Spectrum Present: Yes
Number of Sampled Component Spectra: 1
Spectrometers: USB4H08886
Integration Time (usec): 745692 (USB4H08886)
Spectra Averaged: 5 (USB4H08886)
Boxcar Smoothing: 5 (USB4H08886)
Correct for Electrical Dark: Yes (USB4H08886)
Strobe/Lamp Enabled: No (USB4H08886)
Correct for Detector Non-linearity: Yes (USB4H08886)
Correct for Stray Light: Yes (USB4H08886)
Number of Pixels in Processed Spectrum: 3648
>>>>>Begin Processed Spectral Data<<<<<
178.14	-0.000
178.36	-0.000
178.57	-0.000
178.79	-0.000
179.01	-0.000
179.22	-0.000
179.44	-0.000
179.65	-0.000
179.87	-0.000
180.08	-0.000
180.30	-0.000
180.52	-0.000
180.73	-0.000
180.95	-0.000
181.16	-0.000
181.38	-0.000
181.59	-0.000
181.81	-0.000
182.03	-0.000
182.24	-0.000
182.46	-0.000
182.67	-0.000
182.89	-0.000
183.10	-0.000
183.32	-0.000
183.54	-0.000
183.75	-0.000
183.97	-0.000
184.18	-0.000
184.40	-0.000
184.61	-0.000
184.83	-0.000
185.04	-0.000
185.26	-0.000
185.48	-0.000
185.69	-0.000
185.91	-0.000
186.12	-0.000
186.34	-0.000
186.55	-0.000
186.77	-0.000
186.98	-0.000
187.20	-0.000
187.42	-0.000
187.63	-0.000
187.85	-0.000
188.06	-0.000
188.28	-0.000
188.49	-0.000
188.71	-0.000
188.92	-0.000
189.14	-0.000
189.36	-0.000
189.57	-0.000
189.79	-0.000
190.00	-0.000
190.22	-0.000
190.43	-0.000
190.65	-0.000
190.86	-0.000
191.08	-0.000
191.29	-0.000
191.51	-0.000
191.72	-0.000
191.94	-0.000
192.16	-0.000
192.37	-0.000
192.59	-0.000
192.80	-0.000
193.02	-0.000
193.23	-0.000
193.45	-0.000
193.66	-0.000
193.88	-0.000
194.09	-0.000
194.31	-0.000
194.52	-0.000
194.74	-0.000
194.95	-0.000
195.17	-0.000
195.38	-0.000
195.60	-0.000
195.81	-0.000
196.03	-0.000
196.25	-0.000
196.46	-0.000
196.68	-0.000
196.89	-0.000
197.11	-0.000
197.32	-0.000
197.54	-0.000
197.75	-0.000
197.97	-0.000
198.18	-0.000
198.40	-0.000
198.61	-0.000
198.83	-0.000
199.04	-0.000
199.26	-0.000
199.47	-0.000
199.69	-0.000
199.90	-0.000
200.12	-0.000
200.33	-0.000
200.55	-0.000
200.76	-0.000
200.98	-0.000
201.19	-0.000
201.41	-0.000
201.62	-0.000
201.84	-0.000
202.05	-0.000
202.27	-0.000
202.48	-0.000
202.70	-0.000
202.91	-0.000
203.13	-0.000
203.34	-0.000
203.56	-0.000
203.77	-0.000
203.99	-0.000
204.20	-0.000
204.42	-0.000
204.63	-0.000
204.85	-0.000
205.06	-0.000
205.28	-0.000
205.49	-0.000
205.71	-0.000
205.92	-0.000
206.14	-0.000
206.35	-0.000
206.56	-0.000
206.78	-0.000
206.99	-0.000
207.21	-0.000
207.42	-0.000
207.64	-0.000
207.85	-0.000
208.07	-0.000
208.28	-0.000
208.50	-0.000
208.71	-0.000
208.93	-0.000
209.14	-0.000
209.36	-0.000
209.57	-0.000
209.79	-0.000
210.00	-0.000
210.22	-0.000
210.43	-0.000
210.64	-0.000
210.86	-0.000
211.07	-0.000
211.29	-0.000
211.50	-0.000
211.72	-0.000
211.93	-0.000
212.15	-0.000
212.36	-0.000
212.58	-0.000
212.79	-0.000
213.01	-0.000
213.22	-0.000
213.43	-0.000
213.65	-0.000
213.86	-0.000
214.08	-0.000
214.29	-0.000
214.51	-0.000
214.72	-0.000
214.94	-0.000
215.15	-0.000
215.36	-0.000
215.58	-0.000
215.79	-0.000
216.01	-0.000
216.22	-0.000
216.44	-0.000
216.65	-0.000
216.87	-0.000
217.08	-0.000
217.29	-0.000
217.51	-0.000
217.72	-0.000
217.94	-0.000
218.15	-0.000
218.37	-0.000
218.58	-0.000
218.80	-0.000
219.01	-0.000
219.22	-0.000
219.44	-0.000
219.65	-0.000
219.87	-0.000
220.08	-0.000
220.30	-0.000
220.51	-0.000
220.72	-0.000
220.94	-0.000
221.15	-0.000
221.37	-0.000
221.58	-0.000
221.79	-0.000
222.01	-0.000
222.22	-0.000
222.44	-0.000
222.65	-0.000
222.87	-0.000
223.08	-0.000
223.29	-0.000
223.51	-0.000
223.72	-0.000
223.94	-0.000
224.15	-0.000
224.36	-0.000
224.58	-0.000
224.79	-0.000
225.01	-0.000
225.22	-0.000
225.44	-0.000
225.65	-0.000
225.86	-0.000
226.08	-0.000
226.29	-0.000
226.51	-0.000
226.72	-0.000
226.93	-0.000
227.15	-0.000
227.36	-0.000
227.58	-0.000
227.79	-0.000
228.00	-0.000
228.22	-0.000
228.43	-0.000
228.65	-0.000
228.86	-0.000
229.07	-0.000
229.29	-0.000
229.50	-0.000
229.72	-0.000
229.93	-0.000
230.14	-0.000
230.36	-0.000
230.57	-0.000
230.78	-0.000
231.00	-0.000
231.21	-0.000
231.43	-0.000
231.64	-0.000
231.85	-0.000
232.07	-0.000
232.28	-0.000
232.50	-0.000
232.71	-0.000
232.92	-0.000
233.14	-0.000
233.35	-0.000
233.56	-0.000
233.78	-0.000
233.99	-0.000
234.21	-0.000
234.42	-0.000
234.63	-0.000
234.85	-0.000
235.06	-0.000
235.27	-0.000
235.49	-0.000
235.70	-0.000
235.91	-0.000
236.13	-0.000
236.34	-0.000
236.56	-0.000
236.77	-0.000
236.98	-0.000
237.20	-0.000
237.41	-0.000
237.62	-0.000
237.84	-0.000
238.05	-0.000
238.26	-0.000
238.48	-0.000
238.69	-0.000
238.91	-0.000
239.12	-0.000
239.33	-0.000
239.55	-0.000
239.76	-0.000
239.97	-0.000
240.19	-0.000
240.40	-0.000
240.61	-0.000
240.83	-0.000
241.04	-0.000
241.25	-0.000
241.47	-0.000
241.68	-0.000
241.89	-0.000
242.11	-0.000
242.32	-0.000
242.53	-0.000
242.75	-0.000
242.96	-0.000
243.17	-0.000
243.39	-0.000
243.60	-0.000
243.81	-0.000
244.03	-0.000
244.24	-0.000
244.45	-0.000
244.67	-0.000
244.88	-0.000
245.09	-0.000
245.31	-0.000
245.52	-0.000
245.73	-0.000
245.95	-0.000
246.16	-0.000
246.37	-0.000
246.59	-0.000
246.80	-0.000
247.01	-0.000
247.23	-0.000
247.44	-0.000
247.65	-0.000
247.87	-0.000
248.08	-0.000
248.29	-0.000
248.51	-0.000
248.72	-0.000
248.93	-0.000
249.15	-0.000
249.36	-0.000
249.57	-0.000
249.78	-0.000
250.00	-0.000
250.21	-0.000
250.42	-0.000
250.64	-0.000
250.85	-0.000
251.06	-0.000
251.28	-0.000
251.49	-0.000
251.70	-0.000
251.92	-0.000
252.13	-0.000
252.34	-0.000
252.55	-0.000
252.77	-0.000
252.98	-0.000
253.19	-0.000
253.41	-0.000
253.62	-0.000
253.83	-0.000
254.05	-0.000
254.26	-0.000
254.47	-0.000
254.68	-0.000
254.90	-0.000
255.11	-0.000
255.32	-0.000
255.54	-0.000
255.75	-0.000
255.96	-0.000
256.17	-0.000
256.39	-0.000
256.60	-0.000
256.81	-0.000
257.03	-0.000
257.24	-0.000
257.45	-0.000
257.66	-0.000
257.88	-0.000
258.09	-0.000
258.30	-0.000
258.51	-0.000
258.73	-0.000
258.94	-0.000
259.15	-0.000
259.37	-0.000
259.58	-0.000
259.79	-0.000
260.00	-0.000
260.22	-0.000
260.43	-0.000
260.64	-0.000
260.85	-0.000
261.07	-0.000
261.28	-0.000
261.49	-0.000
261.71	-0.000
261.92	-0.000
262.13	-0.000
262.34	-0.000
262.56	-0.000
262.77	-0.000
262.98	-0.000
263.19	-0.000
263.41	-0.000
263.62	-0.000
263.83	-0.000
264.04	-0.000
264.26	-0.000
264.47	-0.000
264.68	-0.000
264.89	-0.000
265.11	-0.000
265.32	-0.000
265.53	-0.000
265.74	-0.000
265.96	-0.000
266.17	-0.000
266.38	-0.000
266.59	-0.000
266.81	-0.000
267.02	-0.000
267.23	-0.000
267.44	-0.000
267.65	-0.000
267.87	-0.000
268.08	-0.000
268.29	-0.000
268.50	-0.000
268.72	-0.000
268.93	-0.000
269.14	-0.000
269.35	-0.000
269.57	-0.000
269.78	-0.000
269.99	-0.000
270.20	-0.000
270.41	-0.000
270.63	-0.000
270.84	-0.000
271.05	-0.000
271.26	-0.000
271.48	-0.000
271.69	-0.000
271.90	-0.000
272.11	-0.000
272.32	-0.000
272.54	-0.000
272.75	-0.000
272.96	-0.000
273.17	-0.000
273.39	-0.000
273.60	-0.000
273.81	-0.000
274.02	-0.000
274.23	-0.000
274.45	-0.000
274.66	-0.000
274.87	-0.000
275.08	-0.000
275.29	-0.000
275.51	-0.000
275.72	-0.000
275.93	-0.000
276.14	-0.000
276.35	-0.000
276.57	-0.000
276.78	-0.000
276.99	-0.000
277.20	-0.000
277.41	-0.000
277.63	-0.000
277.84	-0.000
278.05	-0.000
278.26	-0.000
278.47	-0.000
278.69	-0.000
278.90	-0.000
279.11	-0.000
279.32	-0.000
279.53	-0.000
279.74	-0.000
279.96	-0.000
280.17	-0.000
280.38	-0.000
280.59	-0.000
280.80	-0.000
281.02	-0.000
281.23	-0.000
281.44	-0.000
281.65	-0.000
281.86	-0.000
282.07	-0.000
282.29	-0.000
282.50	-0.000
282.71	-0.000
282.92	-0.000
283.13	-0.000
283.35	-0.000
283.56	-0.000
283.77	-0.000
283.98	-0.000
284.19	-0.000
284.40	-0.000
284.62	-0.000
284.83	-0.000
285.04	-0.000
285.25	-0.000
285.46	-0.000
285.67	-0.000
285.88	-0.000
286.10	-0.000
286.31	-0.000
286.52	-0.000
286.73	-0.000
286.94	-0.000
287.15	-0.000
287.37	-0.000
287.58	-0.000
287.79	-0.000
288.00	-0.000
288.21	-0.000
288.42	-0.000
288.63	-0.000
288.85	-0.000
289.06	-0.000
289.27	-0.000
289.48	-0.000
289.69	-0.000
289.90	-0.000
290.11	-0.000
290.33	-0.000
290.54	-0.000
290.75	-0.000
290.96	-0.000
291.17	-0.000
291.38	-0.000
291.59	-0.000
291.81	-0.000
292.02	-0.000
292.23	-0.000
292.44	-0.000
292.65	-0.000
292.86	-0.000
293.07	-0.000
293.28	-0.000
293.50	-0.000
293.71	-0.000
293.92	-0.000
294.13	-0.000
294.34	-0.000
294.55	-0.000
294.76	-0.000
294.97	-0.000
295.19	-0.000
295.40	-0.000
295.61	-0.000
295.82	-0.000
296.03	-0.000
296.24	-0.000
296.45	2.343
296.66	1.843
296.87	1.882
297.09	1.977
297.30	2.237
297.51	1.775
297.72	1.723
297.93	1.823
298.14	1.790
298.35	1.734
298.56	1.712
298.77	1.869
298.99	1.851
299.20	1.817
299.41	1.788
299.62	1.743
299.83	1.732
300.04	1.667
300.25	1.648
300.46	1.693
300.67	1.662
300.88	1.605
301.10	1.600
301.31	1.677
301.52	1.601
301.73	1.539
301.94	1.542
302.15	1.560
302.36	1.511
302.57	1.448
302.78	1.455
302.99	1.495
303.20	1.512
303.41	1.415
303.63	1.392
303.84	1.400
304.05	1.400
304.26	1.340
304.47	1.348
304.68	1.350
304.89	1.340
305.10	1.300
305.31	1.285
305.52	1.332
305.73	1.330
305.94	1.292
306.15	1.282
306.37	1.302
306.58	1.305
306.79	1.273
307.00	1.297
307.21	1.340
307.42	1.331
307.63	1.297
307.84	1.260
308.05	1.299
308.26	1.300
308.47	1.277
308.68	1.273
308.89	1.274
309.10	1.270
309.31	1.227
309.52	1.216
309.73	1.231
309.95	1.225
310.16	1.198
310.37	1.186
310.58	1.203
310.79	1.203
311.00	1.200
311.21	1.205
311.42	1.206
311.63	1.201
311.84	1.184
312.05	1.182
312.26	1.208
312.47	1.217
312.68	1.192
312.89	1.176
313.10	1.183
313.31	1.156
313.52	1.158
313.73	1.162
313.94	1.164
314.15	1.147
314.36	1.125
314.57	1.117
314.78	1.107
314.99	1.100
315.21	1.088
315.42	1.093
315.63	1.106
315.84	1.082
316.05	1.066
316.26	1.074
316.47	1.091
316.68	1.086
316.89	1.065
317.10	1.082
317.31	1.088
317.52	1.088
317.73	1.066
317.94	1.061
318.15	1.103
318.36	1.104
318.57	1.087
318.78	1.076
318.99	1.112
319.20	1.112
319.41	1.080
319.62	1.083
319.83	1.096
320.04	1.093
320.25	1.083
320.46	1.051
320.67	1.053
320.88	1.046
321.09	1.032
321.30	1.016
321.51	1.033
321.72	1.032
321.93	1.014
322.14	1.006
322.35	1.033
322.56	1.033
322.77	1.020
322.98	1.032
323.19	1.042
323.40	1.048
323.61	1.028
323.82	1.020
324.03	1.026
324.24	1.023
324.45	1.010
324.66	0.990
324.87	0.987
325.08	0.987
325.29	0.968
325.50	0.962
325.71	0.967
325.92	0.975
326.13	0.963
326.34	0.961
326.55	0.970
326.76	0.969
326.97	0.958
327.18	0.953
327.39	0.978
327.60	0.979
327.80	0.979
328.01	0.977
328.22	0.975
328.43	0.979
328.64	0.968
328.85	0.971
329.06	0.973
329.27	0.973
329.48	0.969
329.69	0.949
329.90	0.958
330.11	0.950
330.32	0.944
330.53	0.936
330.74	0.935
330.95	0.933
331.16	0.920
331.37	0.928
331.58	0.928
331.79	0.928
332.00	0.919
332.21	0.912
332.42	0.916
332.63	0.908
332.83	0.904
333.04	0.908
333.25	0.921
333.46	0.919
333.67	0.905
333.88	0.908
334.09	0.918
334.30	0.915
334.51	0.908
334.72	0.903
334.93	0.907
335.14	0.906
335.35	0.899
335.56	0.894
335.77	0.902
335.98	0.901
336.18	0.893
336.39	0.885
336.60	0.889
336.81	0.886
337.02	0.885
337.23	0.889
337.44	0.891
337.65	0.891
337.86	0.880
338.07	0.876
338.28	0.880
338.49	0.879
338.70	0.870
338.91	0.877
339.11	0.886
339.32	0.882
339.53	0.869
339.74	0.867
339.95	0.864
340.16	0.862
340.37	0.853
340.58	0.851
340.79	0.855
341.00	0.856
341.21	0.846
341.41	0.847
341.62	0.849
341.83	0.850
342.04	0.845
342.25	0.856
342.46	0.861
342.67	0.859
342.88	0.854
343.09	0.852
343.30	0.858
343.50	0.861
343.71	0.850
343.92	0.848
344.13	0.853
344.34	0.852
344.55	0.836
344.76	0.835
344.97	0.839
345.18	0.837
345.38	0.835
345.59	0.830
345.80	0.830
346.01	0.828
346.22	0.823
346.43	0.817
346.64	0.825
346.85	0.826
347.06	0.819
347.26	0.819
347.47	0.824
347.68	0.819
347.89	0.815
348.10	0.810
348.31	0.818
348.52	0.817
348.73	0.814
348.93	0.813
349.14	0.814
349.35	0.814
349.56	0.808
349.77	0.802
349.98	0.808
350.19	0.806
350.39	0.800
350.60	0.796
350.81	0.811
351.02	0.810
351.23	0.805
351.44	0.808
351.65	0.810
351.86	0.808
352.06	0.807
352.27	0.806
352.48	0.807
352.69	0.807
352.90	0.802
353.11	0.789
353.31	0.796
353.52	0.792
353.73	0.784
353.94	0.786
354.15	0.792
354.36	0.792
354.57	0.783
354.77	0.786
354.98	0.785
355.19	0.785
355.40	0.783
355.61	0.789
355.82	0.792
356.02	0.791
356.23	0.783
356.44	0.785
356.65	0.788
356.86	0.789
357.07	0.784
357.27	0.787
357.48	0.788
357.69	0.785
357.90	0.769
358.11	0.766
358.32	0.770
358.52	0.772
358.73	0.763
358.94	0.765
359.15	0.769
359.36	0.768
359.56	0.763
359.77	0.760
359.98	0.767
360.19	0.767
360.40	0.764
360.61	0.765
360.81	0.763
361.02	0.763
361.23	0.755
361.44	0.754
361.65	0.756
361.85	0.755
362.06	0.754
362.27	0.756
362.48	0.755
362.69	0.757
362.89	0.751
363.10	0.753
363.31	0.758
363.52	0.761
363.73	0.756
363.93	0.755
364.14	0.757
364.35	0.758
364.56	0.748
364.77	0.751
364.97	0.753
365.18	0.753
365.39	0.748
365.60	0.745
365.81	0.746
366.01	0.745
366.22	0.742
366.43	0.741
366.64	0.743
366.84	0.748
367.05	0.745
367.26	0.745
367.47	0.747
367.68	0.747
367.88	0.744
368.09	0.741
368.30	0.745
368.51	0.744
368.71	0.743
368.92	0.747
369.13	0.745
369.34	0.745
369.55	0.743
369.75	0.743
369.96	0.750
370.17	0.750
370.38	0.747
370.58	0.746
370.79	0.752
371.00	0.750
371.21	0.742
371.41	0.746
371.62	0.749
371.83	0.746
372.04	0.743
372.24	0.736
372.45	0.737
372.66	0.737
372.87	0.734
373.07	0.731
373.28	0.732
373.49	0.736
373.70	0.727
373.90	0.727
374.11	0.736
374.32	0.736
374.53	0.734
374.73	0.735
374.94	0.737
375.15	0.738
375.36	0.734
375.56	0.742
375.77	0.743
375.98	0.743
376.19	0.739
376.39	0.733
376.60	0.736
376.81	0.737
377.02	0.734
377.22	0.733
377.43	0.733
377.64	0.734
377.84	0.724
378.05	0.729
378.26	0.735
378.47	0.735
378.67	0.732
378.88	0.729
379.09	0.729
379.30	0.730
379.50	0.726
379.71	0.729
379.92	0.731
380.12	0.732
380.33	0.723
380.54	0.719
380.75	0.726
380.95	0.726
381.16	0.725
381.37	0.725
381.57	0.726
381.78	0.727
381.99	0.726
382.20	0.726
382.40	0.728
382.61	0.729
382.82	0.725
383.02	0.718
383.23	0.721
383.44	0.722
383.64	0.720
383.85	0.722
384.06	0.726
384.27	0.724
384.47	0.722
384.68	0.723
384.89	0.729
385.09	0.729
385.30	0.728
385.51	0.727
385.71	0.730
385.92	0.731
386.13	0.729
386.33	0.731
386.54	0.732
386.75	0.732
386.95	0.727
387.16	0.722
387.37	0.725
387.58	0.725
387.78	0.723
387.99	0.721
388.20	0.722
388.40	0.719
388.61	0.715
388.82	0.718
389.02	0.720
389.23	0.721
389.44	0.719
389.64	0.719
389.85	0.731
390.06	0.731
390.26	0.731
390.47	0.731
390.68	0.734
390.88	0.732
391.09	0.728
391.30	0.728
391.50	0.727
391.71	0.727
391.92	0.725
392.12	0.716
392.33	0.717
392.53	0.717
392.74	0.716
392.95	0.715
393.15	0.718
393.36	0.719
393.57	0.717
393.77	0.720
393.98	0.722
394.19	0.722
394.39	0.722
394.60	0.724
394.81	0.725
395.01	0.724
395.22	0.722
395.43	0.723
395.63	0.728
395.84	0.729
396.04	0.725
396.25	0.728
396.46	0.730
396.66	0.728
396.87	0.725
397.08	0.723
397.28	0.724
397.49	0.726
397.69	0.722
397.90	0.717
398.11	0.719
398.31	0.719
398.52	0.715
398.73	0.716
398.93	0.715
399.14	0.715
399.34	0.713
399.55	0.715
399.76	0.714
399.96	0.716
400.17	0.715
400.37	0.713
400.58	0.720
400.79	0.721
400.99	0.719
401.20	0.725
401.41	0.726
401.61	0.727
401.82	0.733
402.02	0.732
402.23	0.733
402.44	0.733
402.64	0.733
402.85	0.727
403.05	0.726
403.26	0.725
403.47	0.718
403.67	0.718
403.88	0.719
404.08	0.713
404.29	0.712
404.50	0.711
404.70	0.712
404.91	0.711
405.11	0.708
405.32	0.708
405.52	0.708
405.73	0.708
405.94	0.706
406.14	0.709
406.35	0.711
406.55	0.710
406.76	0.708
406.97	0.709
407.17	0.712
407.38	0.711
407.58	0.710
407.79	0.713
407.99	0.715
408.20	0.716
408.41	0.711
408.61	0.709
408.82	0.710
409.02	0.710
409.23	0.707
409.43	0.706
409.64	0.708
409.84	0.707
410.05	0.704
410.26	0.702
410.46	0.702
410.67	0.701
410.87	0.703
411.08	0.705
411.28	0.707
411.49	0.709
411.69	0.707
411.90	0.708
412.11	0.710
412.31	0.711
412.52	0.709
412.72	0.711
412.93	0.711
413.13	0.710
413.34	0.707
413.54	0.708
413.75	0.709
413.95	0.708
414.16	0.705
414.37	0.708
414.57	0.708
414.78	0.711
414.98	0.708
415.19	0.709
415.39	0.707
415.60	0.708
415.80	0.707
416.01	0.706
416.21	0.709
416.42	0.708
416.62	0.703
416.83	0.703
417.03	0.703
417.24	0.704
417.44	0.702
417.65	0.701
417.86	0.701
418.06	0.699
418.27	0.697
418.47	0.698
418.68	0.699
418.88	0.699
419.09	0.697
419.29	0.698
419.50	0.698
419.70	0.698
419.91	0.696
420.11	0.694
420.32	0.697
420.52	0.697
420.73	0.696
420.93	0.697
421.14	0.698
421.34	0.697
421.55	0.693
421.75	0.693
421.96	0.695
422.16	0.695
422.37	0.694
422.57	0.691
422.78	0.692
422.98	0.689
423.19	0.687
423.39	0.686
423.60	0.690
423.80	0.691
424.01	0.690
424.21	0.692
424.42	0.693
424.62	0.693
424.83	0.692
425.03	0.692
425.23	0.694
425.44	0.694
425.64	0.694
425.85	0.692
426.05	0.693
426.26	0.693
426.46	0.689
426.67	0.688
426.87	0.693
427.08	0.694
427.28	0.692
427.49	0.693
427.69	0.693
427.90	0.693
428.10	0.690
428.31	0.690
428.51	0.692
428.71	0.691
428.92	0.692
429.12	0.690
429.33	0.690
429.53	0.695
429.74	0.698
429.94	0.698
430.15	0.698
430.35	0.697
430.56	0.694
430.76	0.693
430.96	0.694
431.17	0.691
431.37	0.689
431.58	0.687
431.78	0.684
431.99	0.677
432.19	0.679
432.40	0.680
432.60	0.681
432.80	0.684
433.01	0.682
433.21	0.681
433.42	0.683
433.62	0.683
433.83	0.682
434.03	0.685
434.23	0.688
434.44	0.687
434.64	0.685
434.85	0.690
435.05	0.691
435.26	0.691
435.46	0.690
435.66	0.690
435.87	0.689
436.07	0.690
436.28	0.685
436.48	0.682
436.69	0.682
436.89	0.682
437.09	0.676
437.30	0.674
437.50	0.674
437.71	0.686
437.91	0.685
438.11	0.687
438.32	0.690
438.52	0.691
438.73	0.690
438.93	0.687
439.13	0.687
439.34	0.691
439.54	0.689
439.75	0.689
439.95	0.679
440.15	0.683
440.36	0.681
440.56	0.679
440.77	0.680
440.97	0.680
441.17	0.679
441.38	0.681
441.58	0.678
441.79	0.678
441.99	0.676
442.19	0.674
442.40	0.672
442.60	0.672
442.81	0.670
443.01	0.671
443.21	0.671
443.42	0.670
443.62	0.668
443.82	0.668
444.03	0.669
444.23	0.669
444.44	0.670
444.64	0.669
444.84	0.670
445.05	0.670
445.25	0.667
445.45	0.668
445.66	0.671
445.86	0.670
446.06	0.671
446.27	0.671
446.47	0.674
446.68	0.672
446.88	0.671
447.08	0.670
447.29	0.672
447.49	0.672
447.69	0.671
447.90	0.669
448.10	0.673
448.30	0.670
448.51	0.671
448.71	0.668
448.91	0.670
449.12	0.669
449.32	0.670
449.52	0.668
449.73	0.672
449.93	0.672
450.14	0.673
450.34	0.672
450.54	0.675
450.75	0.672
450.95	0.672
451.15	0.671
451.36	0.674
451.56	0.670
451.76	0.669
451.97	0.666
452.17	0.666
452.37	0.665
452.58	0.661
452.78	0.660
452.98	0.663
453.19	0.662
453.39	0.663
453.59	0.662
453.79	0.663
454.00	0.663
454.20	0.663
454.40	0.663
454.61	0.665
454.81	0.666
455.01	0.664
455.22	0.664
455.42	0.666
455.62	0.664
455.83	0.664
456.03	0.667
456.23	0.668
456.44	0.668
456.64	0.667
456.84	0.667
457.04	0.668
457.25	0.667
457.45	0.664
457.65	0.663
457.86	0.663
458.06	0.662
458.26	0.658
458.47	0.657
458.67	0.658
458.87	0.658
459.07	0.656
459.28	0.658
459.48	0.661
459.68	0.661
459.89	0.659
