SpectraSuite Data File
++++++++++++++++++++++++++++++++++++
Date: Fri Jun 19 12:43:16 CEST 2015
User: introlabs
Dark Spectrum Present: Yes
Reference Spectrum Present: Yes
Number of Sampled Component Spectra: 1
Spectrometers: USB4H08886
Integration Time (usec): 745692 (USB4H08886)
Spectra Averaged: 5 (USB4H08886)
Boxcar Smoothing: 5 (USB4H08886)
Correct for Electrical Dark: Yes (USB4H08886)
Strobe/Lamp Enabled: No (USB4H08886)
Correct for Detector Non-linearity: Yes (USB4H08886)
Correct for Stray Light: Yes (USB4H08886)
Number of Pixels in Processed Spectrum: 3648
>>>>>Begin Processed Spectral Data<<<<<
178.14	-0.000
178.36	-0.000
178.57	-0.000
178.79	-0.000
179.01	-0.000
179.22	-0.000
179.44	-0.000
179.65	-0.000
179.87	-0.000
180.08	-0.000
180.30	-0.000
180.52	-0.000
180.73	-0.000
180.95	-0.000
181.16	-0.000
181.38	-0.000
181.59	-0.000
181.81	-0.000
182.03	-0.000
182.24	-0.000
182.46	-0.000
182.67	-0.000
182.89	-0.000
183.10	-0.000
183.32	-0.000
183.54	-0.000
183.75	-0.000
183.97	-0.000
184.18	-0.000
184.40	-0.000
184.61	-0.000
184.83	-0.000
185.04	-0.000
185.26	-0.000
185.48	-0.000
185.69	-0.000
185.91	-0.000
186.12	-0.000
186.34	-0.000
186.55	-0.000
186.77	-0.000
186.98	-0.000
187.20	-0.000
187.42	-0.000
187.63	-0.000
187.85	-0.000
188.06	-0.000
188.28	-0.000
188.49	-0.000
188.71	-0.000
188.92	-0.000
189.14	-0.000
189.36	-0.000
189.57	-0.000
189.79	-0.000
190.00	-0.000
190.22	-0.000
190.43	-0.000
190.65	-0.000
190.86	-0.000
191.08	-0.000
191.29	-0.000
191.51	-0.000
191.72	-0.000
191.94	-0.000
192.16	-0.000
192.37	-0.000
192.59	-0.000
192.80	-0.000
193.02	-0.000
193.23	-0.000
193.45	-0.000
193.66	-0.000
193.88	-0.000
194.09	-0.000
194.31	-0.000
194.52	-0.000
194.74	-0.000
194.95	-0.000
195.17	-0.000
195.38	-0.000
195.60	-0.000
195.81	-0.000
196.03	-0.000
196.25	-0.000
196.46	-0.000
196.68	-0.000
196.89	-0.000
197.11	-0.000
197.32	-0.000
197.54	-0.000
197.75	-0.000
197.97	-0.000
198.18	-0.000
198.40	-0.000
198.61	-0.000
198.83	-0.000
199.04	-0.000
199.26	-0.000
199.47	-0.000
199.69	-0.000
199.90	-0.000
200.12	-0.000
200.33	-0.000
200.55	-0.000
200.76	-0.000
200.98	-0.000
201.19	-0.000
201.41	-0.000
201.62	-0.000
201.84	-0.000
202.05	-0.000
202.27	-0.000
202.48	-0.000
202.70	-0.000
202.91	-0.000
203.13	-0.000
203.34	-0.000
203.56	-0.000
203.77	-0.000
203.99	-0.000
204.20	-0.000
204.42	-0.000
204.63	-0.000
204.85	-0.000
205.06	-0.000
205.28	-0.000
205.49	-0.000
205.71	-0.000
205.92	-0.000
206.14	-0.000
206.35	-0.000
206.56	-0.000
206.78	-0.000
206.99	-0.000
207.21	-0.000
207.42	-0.000
207.64	-0.000
207.85	-0.000
208.07	-0.000
208.28	-0.000
208.50	-0.000
208.71	-0.000
208.93	-0.000
209.14	-0.000
209.36	-0.000
209.57	-0.000
209.79	-0.000
210.00	-0.000
210.22	-0.000
210.43	-0.000
210.64	-0.000
210.86	-0.000
211.07	-0.000
211.29	-0.000
211.50	-0.000
211.72	-0.000
211.93	-0.000
212.15	-0.000
212.36	-0.000
212.58	-0.000
212.79	-0.000
213.01	-0.000
213.22	-0.000
213.43	-0.000
213.65	-0.000
213.86	-0.000
214.08	-0.000
214.29	-0.000
214.51	-0.000
214.72	-0.000
214.94	-0.000
215.15	-0.000
215.36	-0.000
215.58	-0.000
215.79	-0.000
216.01	-0.000
216.22	-0.000
216.44	-0.000
216.65	-0.000
216.87	-0.000
217.08	-0.000
217.29	-0.000
217.51	-0.000
217.72	-0.000
217.94	-0.000
218.15	-0.000
218.37	-0.000
218.58	-0.000
218.80	-0.000
219.01	-0.000
219.22	-0.000
219.44	-0.000
219.65	-0.000
219.87	-0.000
220.08	-0.000
220.30	-0.000
220.51	-0.000
220.72	-0.000
220.94	-0.000
221.15	-0.000
221.37	-0.000
221.58	-0.000
221.79	-0.000
222.01	-0.000
222.22	-0.000
222.44	-0.000
222.65	-0.000
222.87	-0.000
223.08	-0.000
223.29	-0.000
223.51	-0.000
223.72	-0.000
223.94	-0.000
224.15	-0.000
224.36	-0.000
224.58	-0.000
224.79	-0.000
225.01	-0.000
225.22	-0.000
225.44	-0.000
225.65	-0.000
225.86	-0.000
226.08	-0.000
226.29	-0.000
226.51	-0.000
226.72	-0.000
226.93	-0.000
227.15	-0.000
227.36	-0.000
227.58	-0.000
227.79	-0.000
228.00	-0.000
228.22	-0.000
228.43	-0.000
228.65	-0.000
228.86	-0.000
229.07	-0.000
229.29	-0.000
229.50	-0.000
229.72	-0.000
229.93	-0.000
230.14	-0.000
230.36	-0.000
230.57	-0.000
230.78	-0.000
231.00	-0.000
231.21	-0.000
231.43	-0.000
231.64	-0.000
231.85	-0.000
232.07	-0.000
232.28	-0.000
232.50	-0.000
232.71	-0.000
232.92	-0.000
233.14	-0.000
233.35	-0.000
233.56	-0.000
233.78	-0.000
233.99	-0.000
234.21	-0.000
234.42	-0.000
234.63	-0.000
234.85	-0.000
235.06	-0.000
235.27	-0.000
235.49	-0.000
235.70	-0.000
235.91	-0.000
236.13	-0.000
236.34	-0.000
236.56	-0.000
236.77	-0.000
236.98	-0.000
237.20	-0.000
237.41	-0.000
237.62	-0.000
237.84	-0.000
238.05	-0.000
238.26	-0.000
238.48	-0.000
238.69	-0.000
238.91	-0.000
239.12	-0.000
239.33	-0.000
239.55	-0.000
239.76	-0.000
239.97	-0.000
240.19	-0.000
240.40	-0.000
240.61	-0.000
240.83	-0.000
241.04	-0.000
241.25	-0.000
241.47	-0.000
241.68	-0.000
241.89	-0.000
242.11	-0.000
242.32	-0.000
242.53	-0.000
242.75	-0.000
242.96	-0.000
243.17	-0.000
243.39	-0.000
243.60	-0.000
243.81	-0.000
244.03	-0.000
244.24	-0.000
244.45	-0.000
244.67	-0.000
244.88	-0.000
245.09	-0.000
245.31	-0.000
245.52	-0.000
245.73	-0.000
245.95	-0.000
246.16	-0.000
246.37	-0.000
246.59	-0.000
246.80	-0.000
247.01	-0.000
247.23	-0.000
247.44	-0.000
247.65	-0.000
247.87	-0.000
248.08	-0.000
248.29	-0.000
248.51	-0.000
248.72	-0.000
248.93	-0.000
249.15	-0.000
249.36	-0.000
249.57	-0.000
249.78	-0.000
250.00	-0.000
250.21	-0.000
250.42	-0.000
250.64	-0.000
250.85	-0.000
251.06	-0.000
251.28	-0.000
251.49	-0.000
251.70	-0.000
251.92	-0.000
252.13	-0.000
252.34	-0.000
252.55	-0.000
252.77	-0.000
252.98	-0.000
253.19	-0.000
253.41	-0.000
253.62	-0.000
253.83	-0.000
254.05	-0.000
254.26	-0.000
254.47	-0.000
254.68	-0.000
254.90	-0.000
255.11	-0.000
255.32	-0.000
255.54	-0.000
255.75	-0.000
255.96	-0.000
256.17	-0.000
256.39	-0.000
256.60	-0.000
256.81	-0.000
257.03	-0.000
257.24	-0.000
257.45	-0.000
257.66	-0.000
257.88	-0.000
258.09	-0.000
258.30	-0.000
258.51	-0.000
258.73	-0.000
258.94	-0.000
259.15	-0.000
259.37	-0.000
259.58	-0.000
259.79	-0.000
260.00	-0.000
260.22	-0.000
260.43	-0.000
260.64	-0.000
260.85	-0.000
261.07	-0.000
261.28	-0.000
261.49	-0.000
261.71	-0.000
261.92	-0.000
262.13	-0.000
262.34	-0.000
262.56	-0.000
262.77	-0.000
262.98	-0.000
263.19	-0.000
263.41	-0.000
263.62	-0.000
263.83	-0.000
264.04	-0.000
264.26	-0.000
264.47	-0.000
264.68	-0.000
264.89	-0.000
265.11	-0.000
265.32	-0.000
265.53	-0.000
265.74	-0.000
265.96	-0.000
266.17	-0.000
266.38	-0.000
266.59	-0.000
266.81	-0.000
267.02	-0.000
267.23	-0.000
267.44	-0.000
267.65	-0.000
267.87	-0.000
268.08	-0.000
268.29	-0.000
268.50	-0.000
268.72	-0.000
268.93	-0.000
269.14	-0.000
269.35	-0.000
269.57	-0.000
269.78	-0.000
269.99	-0.000
270.20	-0.000
270.41	-0.000
270.63	-0.000
270.84	-0.000
271.05	-0.000
271.26	-0.000
271.48	-0.000
271.69	-0.000
271.90	-0.000
272.11	-0.000
272.32	-0.000
272.54	-0.000
272.75	-0.000
272.96	-0.000
273.17	-0.000
273.39	-0.000
273.60	-0.000
273.81	-0.000
274.02	-0.000
274.23	-0.000
274.45	-0.000
274.66	-0.000
274.87	-0.000
275.08	-0.000
275.29	-0.000
275.51	-0.000
275.72	-0.000
275.93	-0.000
276.14	-0.000
276.35	-0.000
276.57	-0.000
276.78	-0.000
276.99	-0.000
277.20	-0.000
277.41	-0.000
277.63	-0.000
277.84	-0.000
278.05	-0.000
278.26	-0.000
278.47	-0.000
278.69	-0.000
278.90	-0.000
279.11	-0.000
279.32	-0.000
279.53	-0.000
279.74	-0.000
279.96	-0.000
280.17	-0.000
280.38	-0.000
280.59	-0.000
280.80	-0.000
281.02	-0.000
281.23	-0.000
281.44	-0.000
281.65	-0.000
281.86	-0.000
282.07	-0.000
282.29	-0.000
282.50	-0.000
282.71	-0.000
282.92	-0.000
283.13	-0.000
283.35	-0.000
283.56	-0.000
283.77	-0.000
283.98	-0.000
284.19	-0.000
284.40	-0.000
284.62	-0.000
284.83	-0.000
285.04	-0.000
285.25	-0.000
285.46	-0.000
285.67	-0.000
285.88	-0.000
286.10	-0.000
286.31	-0.000
286.52	-0.000
286.73	-0.000
286.94	-0.000
287.15	-0.000
287.37	-0.000
287.58	-0.000
287.79	-0.000
288.00	-0.000
288.21	-0.000
288.42	-0.000
288.63	-0.000
288.85	-0.000
289.06	-0.000
289.27	-0.000
289.48	-0.000
289.69	-0.000
289.90	-0.000
290.11	-0.000
290.33	-0.000
290.54	-0.000
290.75	-0.000
290.96	-0.000
291.17	-0.000
291.38	-0.000
291.59	-0.000
291.81	-0.000
292.02	-0.000
292.23	-0.000
292.44	-0.000
292.65	-0.000
292.86	-0.000
293.07	-0.000
293.28	-0.000
293.50	-0.000
293.71	-0.000
293.92	-0.000
294.13	-0.000
294.34	-0.000
294.55	-0.000
294.76	-0.000
294.97	-0.000
295.19	-0.000
295.40	-0.000
295.61	-0.000
295.82	-0.000
296.03	-0.000
296.24	-0.000
296.45	2.402
296.66	1.840
296.87	1.835
297.09	1.952
297.30	2.208
297.51	1.728
297.72	1.686
297.93	1.803
298.14	1.764
298.35	1.687
298.56	1.656
298.77	1.798
298.99	1.770
299.20	1.727
299.41	1.704
299.62	1.673
299.83	1.660
300.04	1.572
300.25	1.562
300.46	1.619
300.67	1.593
300.88	1.530
301.10	1.531
301.31	1.615
301.52	1.542
301.73	1.476
301.94	1.476
302.15	1.500
302.36	1.456
302.57	1.389
302.78	1.396
302.99	1.447
303.20	1.460
303.41	1.364
303.63	1.339
303.84	1.357
304.05	1.350
304.26	1.289
304.47	1.296
304.68	1.305
304.89	1.292
305.10	1.246
305.31	1.230
305.52	1.273
305.73	1.266
305.94	1.227
306.15	1.220
306.37	1.244
306.58	1.250
306.79	1.215
307.00	1.230
307.21	1.270
307.42	1.261
307.63	1.225
307.84	1.195
308.05	1.231
308.26	1.232
308.47	1.202
308.68	1.197
308.89	1.201
309.10	1.200
309.31	1.160
309.52	1.155
309.73	1.174
309.95	1.168
310.16	1.141
310.37	1.131
310.58	1.151
310.79	1.148
311.00	1.142
311.21	1.142
311.42	1.145
311.63	1.141
311.84	1.119
312.05	1.115
312.26	1.136
312.47	1.144
312.68	1.117
312.89	1.102
313.10	1.113
313.31	1.090
313.52	1.089
313.73	1.091
313.94	1.095
314.15	1.078
314.36	1.056
314.57	1.049
314.78	1.040
314.99	1.035
315.21	1.021
315.42	1.023
315.63	1.036
315.84	1.014
316.05	0.999
316.26	1.006
316.47	1.026
316.68	1.023
316.89	1.004
317.10	1.023
317.31	1.032
317.52	1.032
317.73	1.011
317.94	1.012
318.15	1.054
318.36	1.052
318.57	1.033
318.78	1.022
318.99	1.055
319.20	1.052
319.41	1.017
319.62	1.018
319.83	1.031
320.04	1.025
320.25	1.008
320.46	0.977
320.67	0.983
320.88	0.978
321.09	0.963
321.30	0.950
321.51	0.966
321.72	0.965
321.93	0.948
322.14	0.943
322.35	0.971
322.56	0.974
322.77	0.961
322.98	0.971
323.19	0.982
323.40	0.989
323.61	0.967
323.82	0.961
324.03	0.967
324.24	0.964
324.45	0.949
324.66	0.930
324.87	0.929
325.08	0.928
325.29	0.908
325.50	0.901
325.71	0.906
325.92	0.913
326.13	0.901
326.34	0.902
326.55	0.912
326.76	0.911
326.97	0.899
327.18	0.893
327.39	0.918
327.60	0.918
327.80	0.918
328.01	0.916
328.22	0.916
328.43	0.918
328.64	0.905
328.85	0.908
329.06	0.911
329.27	0.910
329.48	0.905
329.69	0.887
329.90	0.898
330.11	0.890
330.32	0.883
330.53	0.877
330.74	0.879
330.95	0.878
331.16	0.863
331.37	0.871
331.58	0.872
331.79	0.872
332.00	0.863
332.21	0.857
332.42	0.862
332.63	0.854
332.83	0.849
333.04	0.850
333.25	0.862
333.46	0.860
333.67	0.847
333.88	0.850
334.09	0.859
334.30	0.856
334.51	0.847
334.72	0.843
334.93	0.847
335.14	0.845
335.35	0.837
335.56	0.832
335.77	0.841
335.98	0.840
336.18	0.833
336.39	0.827
336.60	0.832
336.81	0.830
337.02	0.828
337.23	0.832
337.44	0.836
337.65	0.838
337.86	0.829
338.07	0.824
338.28	0.829
338.49	0.827
338.70	0.819
338.91	0.825
339.11	0.833
339.32	0.830
339.53	0.817
339.74	0.815
339.95	0.813
340.16	0.811
340.37	0.803
340.58	0.801
340.79	0.806
341.00	0.806
341.21	0.795
341.41	0.795
341.62	0.797
341.83	0.799
342.04	0.795
342.25	0.805
342.46	0.812
342.67	0.810
342.88	0.803
343.09	0.802
343.30	0.809
343.50	0.811
343.71	0.801
343.92	0.800
344.13	0.806
344.34	0.804
344.55	0.787
344.76	0.785
344.97	0.791
345.18	0.790
345.38	0.787
345.59	0.782
345.80	0.783
346.01	0.781
346.22	0.775
346.43	0.770
346.64	0.779
346.85	0.780
347.06	0.772
347.26	0.773
347.47	0.777
347.68	0.772
347.89	0.769
348.10	0.764
348.31	0.771
348.52	0.771
348.73	0.768
348.93	0.764
349.14	0.766
349.35	0.766
349.56	0.760
349.77	0.755
349.98	0.762
350.19	0.760
350.39	0.755
350.60	0.751
350.81	0.766
351.02	0.765
351.23	0.760
351.44	0.763
351.65	0.766
351.86	0.762
352.06	0.761
352.27	0.760
352.48	0.762
352.69	0.761
352.90	0.756
353.11	0.744
353.31	0.750
353.52	0.748
353.73	0.739
353.94	0.741
354.15	0.748
354.36	0.748
354.57	0.739
354.77	0.741
354.98	0.742
355.19	0.741
355.40	0.740
355.61	0.746
355.82	0.751
356.02	0.751
356.23	0.744
356.44	0.745
356.65	0.749
356.86	0.750
357.07	0.744
357.27	0.747
357.48	0.751
357.69	0.747
357.90	0.733
358.11	0.731
358.32	0.735
358.52	0.737
358.73	0.727
358.94	0.729
359.15	0.734
359.36	0.734
359.56	0.729
359.77	0.726
359.98	0.733
360.19	0.732
360.40	0.728
360.61	0.728
360.81	0.728
361.02	0.729
361.23	0.721
361.44	0.720
361.65	0.721
361.85	0.720
362.06	0.717
362.27	0.718
362.48	0.719
362.69	0.722
362.89	0.715
363.10	0.716
363.31	0.722
363.52	0.725
363.73	0.720
363.93	0.721
364.14	0.725
364.35	0.727
364.56	0.716
364.77	0.718
364.97	0.721
365.18	0.721
365.39	0.716
365.60	0.713
365.81	0.714
366.01	0.713
366.22	0.709
366.43	0.709
366.64	0.711
366.84	0.717
367.05	0.714
367.26	0.714
367.47	0.717
367.68	0.717
367.88	0.713
368.09	0.712
368.30	0.715
368.51	0.715
368.71	0.713
368.92	0.718
369.13	0.716
369.34	0.715
369.55	0.713
369.75	0.712
369.96	0.719
370.17	0.720
370.38	0.716
370.58	0.716
370.79	0.722
371.00	0.720
371.21	0.711
371.41	0.717
371.62	0.721
371.83	0.717
372.04	0.714
372.24	0.707
372.45	0.709
372.66	0.709
372.87	0.705
373.07	0.701
373.28	0.703
373.49	0.705
373.70	0.696
373.90	0.695
374.11	0.705
374.32	0.705
374.53	0.704
374.73	0.704
374.94	0.708
375.15	0.708
375.36	0.705
375.56	0.713
375.77	0.714
375.98	0.714
376.19	0.711
376.39	0.704
376.60	0.709
376.81	0.709
377.02	0.706
377.22	0.705
377.43	0.705
377.64	0.705
377.84	0.696
378.05	0.701
378.26	0.708
378.47	0.706
378.67	0.703
378.88	0.700
379.09	0.701
379.30	0.701
379.50	0.698
379.71	0.701
379.92	0.704
380.12	0.703
380.33	0.694
380.54	0.690
380.75	0.697
380.95	0.698
381.16	0.695
381.37	0.696
381.57	0.697
381.78	0.697
381.99	0.696
382.20	0.695
382.40	0.699
382.61	0.699
382.82	0.695
383.02	0.688
383.23	0.691
383.44	0.691
383.64	0.688
383.85	0.691
384.06	0.695
384.27	0.692
384.47	0.689
384.68	0.689
384.89	0.696
385.09	0.696
385.30	0.695
385.51	0.695
385.71	0.699
385.92	0.699
386.13	0.697
386.33	0.699
386.54	0.700
386.75	0.699
386.95	0.694
387.16	0.689
387.37	0.691
387.58	0.691
387.78	0.689
387.99	0.686
388.20	0.689
388.40	0.686
388.61	0.681
388.82	0.684
389.02	0.687
389.23	0.687
389.44	0.685
389.64	0.685
389.85	0.696
390.06	0.695
390.26	0.695
390.47	0.694
390.68	0.697
390.88	0.695
391.09	0.690
391.30	0.689
391.50	0.689
391.71	0.689
391.92	0.687
392.12	0.679
392.33	0.680
392.53	0.679
392.74	0.679
392.95	0.678
393.15	0.681
393.36	0.683
393.57	0.681
393.77	0.684
393.98	0.687
394.19	0.686
394.39	0.685
394.60	0.686
394.81	0.688
395.01	0.686
395.22	0.683
395.43	0.684
395.63	0.688
395.84	0.688
396.04	0.684
396.25	0.686
396.46	0.688
396.66	0.686
396.87	0.683
397.08	0.680
397.28	0.682
397.49	0.683
397.69	0.679
397.90	0.675
398.11	0.676
398.31	0.677
398.52	0.672
398.73	0.674
398.93	0.673
399.14	0.672
399.34	0.671
399.55	0.672
399.76	0.673
399.96	0.674
400.17	0.672
400.37	0.670
400.58	0.677
400.79	0.679
400.99	0.676
401.20	0.681
401.41	0.684
401.61	0.685
401.82	0.689
402.02	0.688
402.23	0.688
402.44	0.688
402.64	0.688
402.85	0.682
403.05	0.681
403.26	0.680
403.47	0.673
403.67	0.672
403.88	0.673
404.08	0.667
404.29	0.665
404.50	0.665
404.70	0.666
404.91	0.664
405.11	0.661
405.32	0.662
405.52	0.662
405.73	0.662
405.94	0.660
406.14	0.662
406.35	0.665
406.55	0.664
406.76	0.661
406.97	0.662
407.17	0.664
407.38	0.664
407.58	0.662
407.79	0.665
407.99	0.667
408.20	0.667
408.41	0.663
408.61	0.661
408.82	0.662
409.02	0.662
409.23	0.660
409.43	0.659
409.64	0.661
409.84	0.661
410.05	0.657
410.26	0.656
410.46	0.656
410.67	0.656
410.87	0.657
411.08	0.659
411.28	0.661
411.49	0.662
411.69	0.659
411.90	0.660
412.11	0.662
412.31	0.663
412.52	0.660
412.72	0.661
412.93	0.662
413.13	0.661
413.34	0.657
413.54	0.658
413.75	0.660
413.95	0.659
414.16	0.656
414.37	0.658
414.57	0.659
414.78	0.662
414.98	0.660
415.19	0.661
415.39	0.659
415.60	0.661
415.80	0.660
416.01	0.659
416.21	0.661
416.42	0.661
416.62	0.656
416.83	0.657
417.03	0.656
417.24	0.656
417.44	0.654
417.65	0.653
417.86	0.654
418.06	0.652
418.27	0.649
418.47	0.651
418.68	0.652
418.88	0.653
419.09	0.651
419.29	0.652
419.50	0.653
419.70	0.653
419.91	0.650
420.11	0.648
420.32	0.651
420.52	0.651
420.73	0.650
420.93	0.651
421.14	0.653
421.34	0.651
421.55	0.647
421.75	0.647
421.96	0.649
422.16	0.650
422.37	0.649
422.57	0.646
422.78	0.648
422.98	0.645
423.19	0.642
423.39	0.641
423.60	0.645
423.80	0.647
424.01	0.646
424.21	0.648
424.42	0.649
424.62	0.650
424.83	0.648
425.03	0.648
425.23	0.651
425.44	0.651
425.64	0.651
425.85	0.650
426.05	0.651
426.26	0.651
426.46	0.647
426.67	0.646
426.87	0.650
427.08	0.651
427.28	0.649
427.49	0.650
427.69	0.651
427.90	0.650
428.10	0.647
428.31	0.647
428.51	0.649
428.71	0.649
428.92	0.649
429.12	0.647
429.33	0.648
429.53	0.652
429.74	0.655
429.94	0.655
430.15	0.656
430.35	0.655
430.56	0.652
430.76	0.652
430.96	0.653
431.17	0.651
431.37	0.648
431.58	0.646
431.78	0.643
431.99	0.637
432.19	0.639
432.40	0.640
432.60	0.642
432.80	0.645
433.01	0.642
433.21	0.643
433.42	0.645
433.62	0.646
433.83	0.645
434.03	0.648
434.23	0.651
434.44	0.650
434.64	0.648
434.85	0.652
435.05	0.653
435.26	0.654
435.46	0.652
435.66	0.653
435.87	0.653
436.07	0.654
436.28	0.649
436.48	0.646
436.69	0.646
436.89	0.647
437.09	0.641
437.30	0.640
437.50	0.641
437.71	0.652
437.91	0.651
438.11	0.652
438.32	0.656
438.52	0.657
438.73	0.655
438.93	0.654
439.13	0.654
439.34	0.657
439.54	0.655
439.75	0.655
439.95	0.646
440.15	0.650
440.36	0.648
440.56	0.647
440.77	0.648
440.97	0.648
441.17	0.646
441.38	0.648
441.58	0.645
441.79	0.645
441.99	0.643
442.19	0.642
442.40	0.641
442.60	0.640
442.81	0.638
443.01	0.638
443.21	0.640
443.42	0.640
443.62	0.638
443.82	0.638
444.03	0.640
444.23	0.640
444.44	0.640
444.64	0.639
444.84	0.641
445.05	0.640
445.25	0.638
445.45	0.639
445.66	0.641
445.86	0.640
446.06	0.641
446.27	0.641
446.47	0.644
446.68	0.643
446.88	0.642
447.08	0.641
447.29	0.644
447.49	0.644
447.69	0.643
447.90	0.642
448.10	0.647
448.30	0.645
448.51	0.646
448.71	0.644
448.91	0.647
449.12	0.645
449.32	0.647
449.52	0.646
449.73	0.650
449.93	0.649
450.14	0.649
450.34	0.648
450.54	0.650
450.75	0.647
450.95	0.646
451.15	0.645
451.36	0.648
451.56	0.645
451.76	0.643
451.97	0.640
452.17	0.641
452.37	0.640
452.58	0.636
452.78	0.636
452.98	0.639
453.19	0.638
453.39	0.639
453.59	0.638
453.79	0.639
454.00	0.640
454.20	0.639
454.40	0.640
454.61	0.642
454.81	0.643
455.01	0.641
455.22	0.641
455.42	0.643
455.62	0.642
455.83	0.641
456.03	0.643
456.23	0.645
456.44	0.645
456.64	0.644
456.84	0.644
457.04	0.646
457.25	0.645
457.45	0.642
457.65	0.641
457.86	0.642
458.06	0.641
458.26	0.636
458.47	0.636
458.67	0.637
458.87	0.637
459.07	0.634
459.28	0.636
459.48	0.639
459.68	0.640
459.89	0.638
