SpectraSuite Data File
++++++++++++++++++++++++++++++++++++
Date: Fri Jun 19 16:46:59 CEST 2015
User: introlabs
Dark Spectrum Present: Yes
Reference Spectrum Present: Yes
Number of Sampled Component Spectra: 1
Spectrometers: USB4H08886
Integration Time (usec): 745692 (USB4H08886)
Spectra Averaged: 5 (USB4H08886)
Boxcar Smoothing: 5 (USB4H08886)
Correct for Electrical Dark: Yes (USB4H08886)
Strobe/Lamp Enabled: No (USB4H08886)
Correct for Detector Non-linearity: Yes (USB4H08886)
Correct for Stray Light: Yes (USB4H08886)
Number of Pixels in Processed Spectrum: 3648
>>>>>Begin Processed Spectral Data<<<<<
178.14	-0.000
178.36	-0.000
178.57	-0.000
178.79	-0.000
179.01	-0.000
179.22	-0.000
179.44	-0.000
179.65	-0.000
179.87	-0.000
180.08	-0.000
180.30	-0.000
180.52	-0.000
180.73	-0.000
180.95	-0.000
181.16	-0.000
181.38	-0.000
181.59	-0.000
181.81	-0.000
182.03	-0.000
182.24	-0.000
182.46	-0.000
182.67	-0.000
182.89	-0.000
183.10	-0.000
183.32	-0.000
183.54	-0.000
183.75	-0.000
183.97	-0.000
184.18	-0.000
184.40	-0.000
184.61	-0.000
184.83	-0.000
185.04	-0.000
185.26	-0.000
185.48	-0.000
185.69	-0.000
185.91	-0.000
186.12	-0.000
186.34	-0.000
186.55	-0.000
186.77	-0.000
186.98	-0.000
187.20	-0.000
187.42	-0.000
187.63	-0.000
187.85	-0.000
188.06	-0.000
188.28	-0.000
188.49	-0.000
188.71	-0.000
188.92	-0.000
189.14	-0.000
189.36	-0.000
189.57	-0.000
189.79	-0.000
190.00	-0.000
190.22	-0.000
190.43	-0.000
190.65	-0.000
190.86	-0.000
191.08	-0.000
191.29	-0.000
191.51	-0.000
191.72	-0.000
191.94	-0.000
192.16	-0.000
192.37	-0.000
192.59	-0.000
192.80	-0.000
193.02	-0.000
193.23	-0.000
193.45	-0.000
193.66	-0.000
193.88	-0.000
194.09	-0.000
194.31	-0.000
194.52	-0.000
194.74	-0.000
194.95	-0.000
195.17	-0.000
195.38	-0.000
195.60	-0.000
195.81	-0.000
196.03	-0.000
196.25	-0.000
196.46	-0.000
196.68	-0.000
196.89	-0.000
197.11	-0.000
197.32	-0.000
197.54	-0.000
197.75	-0.000
197.97	-0.000
198.18	-0.000
198.40	-0.000
198.61	-0.000
198.83	-0.000
199.04	-0.000
199.26	-0.000
199.47	-0.000
199.69	-0.000
199.90	-0.000
200.12	-0.000
200.33	-0.000
200.55	-0.000
200.76	-0.000
200.98	-0.000
201.19	-0.000
201.41	-0.000
201.62	-0.000
201.84	-0.000
202.05	-0.000
202.27	-0.000
202.48	-0.000
202.70	-0.000
202.91	-0.000
203.13	-0.000
203.34	-0.000
203.56	-0.000
203.77	-0.000
203.99	-0.000
204.20	-0.000
204.42	-0.000
204.63	-0.000
204.85	-0.000
205.06	-0.000
205.28	-0.000
205.49	-0.000
205.71	-0.000
205.92	-0.000
206.14	-0.000
206.35	-0.000
206.56	-0.000
206.78	-0.000
206.99	-0.000
207.21	-0.000
207.42	-0.000
207.64	-0.000
207.85	-0.000
208.07	-0.000
208.28	-0.000
208.50	-0.000
208.71	-0.000
208.93	-0.000
209.14	-0.000
209.36	-0.000
209.57	-0.000
209.79	-0.000
210.00	-0.000
210.22	-0.000
210.43	-0.000
210.64	-0.000
210.86	-0.000
211.07	-0.000
211.29	-0.000
211.50	-0.000
211.72	-0.000
211.93	-0.000
212.15	-0.000
212.36	-0.000
212.58	-0.000
212.79	-0.000
213.01	-0.000
213.22	-0.000
213.43	-0.000
213.65	-0.000
213.86	-0.000
214.08	-0.000
214.29	-0.000
214.51	-0.000
214.72	-0.000
214.94	-0.000
215.15	-0.000
215.36	-0.000
215.58	-0.000
215.79	-0.000
216.01	-0.000
216.22	-0.000
216.44	-0.000
216.65	-0.000
216.87	-0.000
217.08	-0.000
217.29	-0.000
217.51	-0.000
217.72	-0.000
217.94	-0.000
218.15	-0.000
218.37	-0.000
218.58	-0.000
218.80	-0.000
219.01	-0.000
219.22	-0.000
219.44	-0.000
219.65	-0.000
219.87	-0.000
220.08	-0.000
220.30	-0.000
220.51	-0.000
220.72	-0.000
220.94	-0.000
221.15	-0.000
221.37	-0.000
221.58	-0.000
221.79	-0.000
222.01	-0.000
222.22	-0.000
222.44	-0.000
222.65	-0.000
222.87	-0.000
223.08	-0.000
223.29	-0.000
223.51	-0.000
223.72	-0.000
223.94	-0.000
224.15	-0.000
224.36	-0.000
224.58	-0.000
224.79	-0.000
225.01	-0.000
225.22	-0.000
225.44	-0.000
225.65	-0.000
225.86	-0.000
226.08	-0.000
226.29	-0.000
226.51	-0.000
226.72	-0.000
226.93	-0.000
227.15	-0.000
227.36	-0.000
227.58	-0.000
227.79	-0.000
228.00	-0.000
228.22	-0.000
228.43	-0.000
228.65	-0.000
228.86	-0.000
229.07	-0.000
229.29	-0.000
229.50	-0.000
229.72	-0.000
229.93	-0.000
230.14	-0.000
230.36	-0.000
230.57	-0.000
230.78	-0.000
231.00	-0.000
231.21	-0.000
231.43	-0.000
231.64	-0.000
231.85	-0.000
232.07	-0.000
232.28	-0.000
232.50	-0.000
232.71	-0.000
232.92	-0.000
233.14	-0.000
233.35	-0.000
233.56	-0.000
233.78	-0.000
233.99	-0.000
234.21	-0.000
234.42	-0.000
234.63	-0.000
234.85	-0.000
235.06	-0.000
235.27	-0.000
235.49	-0.000
235.70	-0.000
235.91	-0.000
236.13	-0.000
236.34	-0.000
236.56	-0.000
236.77	-0.000
236.98	-0.000
237.20	-0.000
237.41	-0.000
237.62	-0.000
237.84	-0.000
238.05	-0.000
238.26	-0.000
238.48	-0.000
238.69	-0.000
238.91	-0.000
239.12	-0.000
239.33	-0.000
239.55	-0.000
239.76	-0.000
239.97	-0.000
240.19	-0.000
240.40	-0.000
240.61	-0.000
240.83	-0.000
241.04	-0.000
241.25	-0.000
241.47	-0.000
241.68	-0.000
241.89	-0.000
242.11	-0.000
242.32	-0.000
242.53	-0.000
242.75	-0.000
242.96	-0.000
243.17	-0.000
243.39	-0.000
243.60	-0.000
243.81	-0.000
244.03	-0.000
244.24	-0.000
244.45	-0.000
244.67	-0.000
244.88	-0.000
245.09	-0.000
245.31	-0.000
245.52	-0.000
245.73	-0.000
245.95	-0.000
246.16	-0.000
246.37	-0.000
246.59	-0.000
246.80	-0.000
247.01	-0.000
247.23	-0.000
247.44	-0.000
247.65	-0.000
247.87	-0.000
248.08	-0.000
248.29	-0.000
248.51	-0.000
248.72	-0.000
248.93	-0.000
249.15	-0.000
249.36	-0.000
249.57	-0.000
249.78	-0.000
250.00	-0.000
250.21	-0.000
250.42	-0.000
250.64	-0.000
250.85	-0.000
251.06	-0.000
251.28	-0.000
251.49	-0.000
251.70	-0.000
251.92	-0.000
252.13	-0.000
252.34	-0.000
252.55	-0.000
252.77	-0.000
252.98	-0.000
253.19	-0.000
253.41	-0.000
253.62	-0.000
253.83	-0.000
254.05	-0.000
254.26	-0.000
254.47	-0.000
254.68	-0.000
254.90	-0.000
255.11	-0.000
255.32	-0.000
255.54	-0.000
255.75	-0.000
255.96	-0.000
256.17	-0.000
256.39	-0.000
256.60	-0.000
256.81	-0.000
257.03	-0.000
257.24	-0.000
257.45	-0.000
257.66	-0.000
257.88	-0.000
258.09	-0.000
258.30	-0.000
258.51	-0.000
258.73	-0.000
258.94	-0.000
259.15	-0.000
259.37	-0.000
259.58	-0.000
259.79	-0.000
260.00	-0.000
260.22	-0.000
260.43	-0.000
260.64	-0.000
260.85	-0.000
261.07	-0.000
261.28	-0.000
261.49	-0.000
261.71	-0.000
261.92	-0.000
262.13	-0.000
262.34	-0.000
262.56	-0.000
262.77	-0.000
262.98	-0.000
263.19	-0.000
263.41	-0.000
263.62	-0.000
263.83	-0.000
264.04	-0.000
264.26	-0.000
264.47	-0.000
264.68	-0.000
264.89	-0.000
265.11	-0.000
265.32	-0.000
265.53	-0.000
265.74	-0.000
265.96	-0.000
266.17	-0.000
266.38	-0.000
266.59	-0.000
266.81	-0.000
267.02	-0.000
267.23	-0.000
267.44	-0.000
267.65	-0.000
267.87	-0.000
268.08	-0.000
268.29	-0.000
268.50	-0.000
268.72	-0.000
268.93	-0.000
269.14	-0.000
269.35	-0.000
269.57	-0.000
269.78	-0.000
269.99	-0.000
270.20	-0.000
270.41	-0.000
270.63	-0.000
270.84	-0.000
271.05	-0.000
271.26	-0.000
271.48	-0.000
271.69	-0.000
271.90	-0.000
272.11	-0.000
272.32	-0.000
272.54	-0.000
272.75	-0.000
272.96	-0.000
273.17	-0.000
273.39	-0.000
273.60	-0.000
273.81	-0.000
274.02	-0.000
274.23	-0.000
274.45	-0.000
274.66	-0.000
274.87	-0.000
275.08	-0.000
275.29	-0.000
275.51	-0.000
275.72	-0.000
275.93	-0.000
276.14	-0.000
276.35	-0.000
276.57	-0.000
276.78	-0.000
276.99	-0.000
277.20	-0.000
277.41	-0.000
277.63	-0.000
277.84	-0.000
278.05	-0.000
278.26	-0.000
278.47	-0.000
278.69	-0.000
278.90	-0.000
279.11	-0.000
279.32	-0.000
279.53	-0.000
279.74	-0.000
279.96	-0.000
280.17	-0.000
280.38	-0.000
280.59	-0.000
280.80	-0.000
281.02	-0.000
281.23	-0.000
281.44	-0.000
281.65	-0.000
281.86	-0.000
282.07	-0.000
282.29	-0.000
282.50	-0.000
282.71	-0.000
282.92	-0.000
283.13	-0.000
283.35	-0.000
283.56	-0.000
283.77	-0.000
283.98	-0.000
284.19	-0.000
284.40	-0.000
284.62	-0.000
284.83	-0.000
285.04	-0.000
285.25	-0.000
285.46	-0.000
285.67	-0.000
285.88	-0.000
286.10	-0.000
286.31	-0.000
286.52	-0.000
286.73	-0.000
286.94	-0.000
287.15	-0.000
287.37	-0.000
287.58	-0.000
287.79	-0.000
288.00	-0.000
288.21	-0.000
288.42	-0.000
288.63	-0.000
288.85	-0.000
289.06	-0.000
289.27	-0.000
289.48	-0.000
289.69	-0.000
289.90	-0.000
290.11	-0.000
290.33	-0.000
290.54	-0.000
290.75	-0.000
290.96	-0.000
291.17	-0.000
291.38	-0.000
291.59	-0.000
291.81	-0.000
292.02	-0.000
292.23	-0.000
292.44	-0.000
292.65	-0.000
292.86	-0.000
293.07	-0.000
293.28	-0.000
293.50	-0.000
293.71	-0.000
293.92	-0.000
294.13	-0.000
294.34	-0.000
294.55	-0.000
294.76	-0.000
294.97	-0.000
295.19	-0.000
295.40	-0.000
295.61	-0.000
295.82	-0.000
296.03	-0.000
296.24	-0.000
296.45	-0.000
296.66	-0.000
296.87	-0.000
297.09	-0.000
297.30	-0.000
297.51	-0.000
297.72	-0.000
297.93	-0.000
298.14	-0.000
298.35	-0.000
298.56	-0.000
298.77	-0.000
298.99	-0.000
299.20	-0.000
299.41	-0.000
299.62	-0.000
299.83	-0.000
300.04	-0.000
300.25	-0.000
300.46	-0.000
300.67	-0.000
300.88	-0.000
301.10	-0.000
301.31	-0.000
301.52	-0.000
301.73	-0.000
301.94	-0.000
302.15	-0.000
302.36	-0.000
302.57	-0.000
302.78	-0.000
302.99	-0.000
303.20	-0.000
303.41	-0.000
303.63	-0.000
303.84	-0.000
304.05	-0.000
304.26	-0.000
304.47	-0.000
304.68	-0.000
304.89	-0.000
305.10	-0.000
305.31	-0.000
305.52	-0.000
305.73	-0.000
305.94	-0.000
306.15	-0.000
306.37	-0.000
306.58	-0.000
306.79	-0.000
307.00	-0.000
307.21	-0.000
307.42	-0.000
307.63	-0.000
307.84	-0.000
308.05	-0.000
308.26	-0.000
308.47	-0.000
308.68	-0.000
308.89	-0.000
309.10	-0.000
309.31	-0.000
309.52	-0.000
309.73	-0.000
309.95	-0.000
310.16	-0.000
310.37	-0.000
310.58	-0.000
310.79	-0.000
311.00	-0.000
311.21	-0.000
311.42	-0.000
311.63	-0.000
311.84	-0.000
312.05	-0.000
312.26	-0.000
312.47	-0.000
312.68	-0.000
312.89	-0.000
313.10	-0.000
313.31	-0.000
313.52	-0.000
313.73	-0.000
313.94	-0.000
314.15	-0.000
314.36	-0.000
314.57	-0.000
314.78	-0.000
314.99	-0.000
315.21	-0.000
315.42	-0.000
315.63	-0.000
315.84	-0.000
316.05	-0.000
316.26	-0.000
316.47	-0.000
316.68	-0.000
316.89	-0.000
317.10	-0.000
317.31	-0.000
317.52	-0.000
317.73	-0.000
317.94	-0.000
318.15	-0.000
318.36	-0.000
318.57	-0.000
318.78	-0.000
318.99	-0.000
319.20	-0.000
319.41	-0.000
319.62	-0.000
319.83	-0.000
320.04	-0.000
320.25	-0.000
320.46	-0.000
320.67	-0.000
320.88	-0.000
321.09	-0.000
321.30	-0.000
321.51	-0.000
321.72	-0.000
321.93	-0.000
322.14	-0.000
322.35	-0.000
322.56	-0.000
322.77	-0.000
322.98	-0.000
323.19	-0.000
323.40	-0.000
323.61	-0.000
323.82	-0.000
324.03	-0.000
324.24	-0.000
324.45	-0.000
324.66	-0.000
324.87	-0.000
325.08	-0.000
325.29	-0.000
325.50	-0.000
325.71	-0.000
325.92	-0.000
326.13	-0.000
326.34	-0.000
326.55	-0.000
326.76	-0.000
326.97	-0.000
327.18	-0.000
327.39	-0.000
327.60	-0.000
327.80	-0.000
328.01	-0.000
328.22	-0.000
328.43	-0.000
328.64	-0.000
328.85	-0.000
329.06	-0.000
329.27	-0.000
329.48	-0.000
329.69	-0.000
329.90	-0.000
330.11	-0.000
330.32	-0.000
330.53	-0.000
330.74	-0.000
330.95	-0.000
331.16	-0.000
331.37	-0.000
331.58	-0.000
331.79	-0.000
332.00	-0.000
332.21	-0.000
332.42	-0.000
332.63	-0.000
332.83	-0.000
333.04	-0.000
333.25	-0.000
333.46	-0.000
333.67	-0.000
333.88	-0.000
334.09	-0.000
334.30	-0.000
334.51	-0.000
334.72	-0.000
334.93	-0.000
335.14	-0.000
335.35	-0.000
335.56	-0.000
335.77	-0.000
335.98	-0.000
336.18	-0.000
336.39	-0.000
336.60	-0.000
336.81	-0.000
337.02	-0.000
337.23	-0.000
337.44	-0.000
337.65	-0.000
337.86	-0.000
338.07	-0.000
338.28	-0.000
338.49	-0.000
338.70	-0.000
338.91	-0.000
339.11	-0.000
339.32	-0.000
339.53	-0.000
339.74	-0.000
339.95	-0.000
340.16	-0.000
340.37	-0.000
340.58	-0.000
340.79	-0.000
341.00	-0.000
341.21	-0.000
341.41	-0.000
341.62	-0.000
341.83	-0.000
342.04	-0.000
342.25	-0.000
342.46	-0.000
342.67	-0.000
342.88	-0.000
343.09	-0.000
343.30	-0.000
343.50	-0.000
343.71	-0.000
343.92	-0.000
344.13	-0.000
344.34	-0.000
344.55	-0.000
344.76	-0.000
344.97	-0.000
345.18	-0.000
345.38	-0.000
345.59	-0.000
345.80	-0.000
346.01	-0.000
346.22	-0.000
346.43	-0.000
346.64	-0.000
346.85	-0.000
347.06	-0.000
347.26	-0.000
347.47	-0.000
347.68	-0.000
347.89	-0.000
348.10	-0.000
348.31	-0.000
348.52	-0.000
348.73	-0.000
348.93	-0.000
349.14	-0.000
349.35	-0.000
349.56	-0.000
349.77	-0.000
349.98	-0.000
350.19	-0.000
350.39	-0.000
350.60	-0.000
350.81	-0.000
351.02	-0.000
351.23	-0.000
351.44	-0.000
351.65	-0.000
351.86	-0.000
352.06	-0.000
352.27	-0.000
352.48	-0.000
352.69	-0.000
352.90	-0.000
353.11	-0.000
353.31	-0.000
353.52	-0.000
353.73	-0.000
353.94	-0.000
354.15	-0.000
354.36	-0.000
354.57	-0.000
354.77	-0.000
354.98	-0.000
355.19	-0.000
355.40	-0.000
355.61	-0.000
355.82	-0.000
356.02	-0.000
356.23	-0.000
356.44	-0.000
356.65	-0.000
356.86	-0.000
357.07	-0.000
357.27	-0.000
357.48	-0.000
357.69	-0.000
357.90	-0.000
358.11	-0.000
358.32	-0.000
358.52	-0.000
358.73	-0.000
358.94	-0.000
359.15	-0.000
359.36	-0.000
359.56	-0.000
359.77	-0.000
359.98	-0.000
360.19	-0.000
360.40	-0.000
360.61	-0.000
360.81	-0.000
361.02	-0.000
361.23	-0.000
361.44	-0.000
361.65	-0.000
361.85	-0.000
362.06	-0.000
362.27	-0.000
362.48	-0.000
362.69	-0.000
362.89	-0.000
363.10	-0.000
363.31	-0.000
363.52	-0.000
363.73	-0.000
363.93	-0.000
364.14	-0.000
364.35	-0.000
364.56	-0.000
364.77	-0.000
364.97	-0.000
365.18	-0.000
365.39	-0.000
365.60	-0.000
365.81	-0.000
366.01	-0.000
366.22	-0.000
366.43	-0.000
366.64	-0.000
366.84	-0.000
367.05	-0.000
367.26	-0.000
367.47	-0.000
367.68	-0.000
367.88	-0.000
368.09	-0.000
368.30	-0.000
368.51	-0.000
368.71	-0.000
368.92	-0.000
369.13	-0.000
369.34	-0.000
369.55	-0.000
369.75	-0.000
369.96	-0.000
370.17	-0.000
370.38	-0.000
370.58	-0.000
370.79	-0.000
371.00	-0.000
371.21	-0.000
371.41	-0.000
371.62	-0.000
371.83	-0.000
372.04	-0.000
372.24	-0.000
372.45	-0.000
372.66	-0.000
372.87	-0.000
373.07	-0.000
373.28	-0.000
373.49	-0.000
373.70	-0.000
373.90	-0.000
374.11	-0.000
374.32	-0.000
374.53	-0.000
374.73	-0.000
374.94	-0.000
375.15	-0.000
375.36	-0.000
375.56	-0.000
375.77	-0.000
375.98	-0.000
376.19	-0.000
376.39	-0.000
376.60	-0.000
376.81	-0.000
377.02	-0.000
377.22	-0.000
377.43	-0.000
377.64	-0.000
377.84	-0.000
378.05	-0.000
378.26	-0.000
378.47	-0.000
378.67	-0.000
378.88	-0.000
379.09	-0.000
379.30	-0.000
379.50	-0.000
379.71	-0.000
379.92	-0.000
380.12	-0.000
380.33	-0.000
380.54	-0.000
380.75	-0.000
380.95	-0.000
381.16	-0.000
381.37	-0.000
381.57	-0.000
381.78	-0.000
381.99	-0.000
382.20	-0.000
382.40	-0.000
382.61	-0.000
382.82	-0.000
383.02	-0.000
383.23	-0.000
383.44	-0.000
383.64	-0.000
383.85	-0.000
384.06	-0.000
384.27	-0.000
384.47	-0.000
384.68	-0.000
384.89	-0.000
385.09	-0.000
385.30	-0.000
385.51	-0.000
385.71	-0.000
385.92	-0.000
386.13	-0.000
386.33	-0.000
386.54	-0.000
386.75	-0.000
386.95	-0.000
387.16	-0.000
387.37	-0.000
387.58	-0.000
387.78	-0.000
387.99	-0.000
388.20	-0.000
388.40	-0.000
388.61	-0.000
388.82	-0.000
389.02	-0.000
389.23	-0.000
389.44	-0.000
389.64	-0.000
389.85	-0.000
390.06	-0.000
390.26	-0.000
390.47	-0.000
390.68	-0.000
390.88	-0.000
391.09	-0.000
391.30	-0.000
391.50	-0.000
391.71	-0.000
391.92	-0.000
392.12	-0.000
392.33	-0.000
392.53	-0.000
392.74	-0.000
392.95	-0.000
393.15	-0.000
393.36	-0.000
393.57	-0.000
393.77	-0.000
393.98	-0.000
394.19	-0.000
394.39	-0.000
394.60	-0.000
394.81	-0.000
395.01	-0.000
395.22	-0.000
395.43	-0.000
395.63	-0.000
395.84	-0.000
396.04	-0.000
396.25	-0.000
396.46	-0.000
396.66	-0.000
396.87	-0.000
397.08	-0.000
397.28	-0.000
397.49	-0.000
397.69	-0.000
397.90	-0.000
398.11	-0.000
398.31	-0.000
398.52	-0.000
398.73	-0.000
398.93	-0.000
399.14	-0.000
399.34	-0.000
399.55	-0.000
399.76	-0.000
399.96	-0.000
400.17	-0.000
400.37	-0.000
400.58	-0.000
400.79	-0.000
400.99	-0.000
401.20	-0.000
401.41	-0.000
401.61	-0.000
401.82	-0.000
402.02	-0.000
402.23	-0.000
402.44	-0.000
402.64	-0.000
402.85	-0.000
403.05	-0.000
403.26	-0.000
403.47	-0.000
403.67	-0.000
403.88	-0.000
404.08	-0.000
404.29	-0.000
404.50	-0.000
404.70	-0.000
404.91	-0.000
405.11	-0.000
405.32	-0.000
405.52	-0.000
405.73	-0.000
405.94	-0.000
406.14	-0.000
406.35	-0.000
406.55	-0.000
406.76	-0.000
406.97	-0.000
407.17	-0.000
407.38	-0.000
407.58	-0.000
407.79	-0.000
407.99	-0.000
408.20	-0.000
408.41	-0.000
408.61	-0.000
408.82	-0.000
409.02	-0.000
409.23	-0.000
409.43	-0.000
409.64	-0.000
409.84	-0.000
410.05	-0.000
410.26	-0.000
410.46	-0.000
410.67	-0.000
410.87	-0.000
411.08	-0.000
411.28	-0.000
411.49	-0.000
411.69	-0.000
411.90	-0.000
412.11	-0.000
412.31	-0.000
412.52	-0.000
412.72	-0.000
412.93	-0.000
413.13	-0.000
413.34	-0.000
413.54	-0.000
413.75	-0.000
413.95	-0.000
414.16	-0.000
414.37	-0.000
414.57	-0.000
414.78	-0.000
414.98	-0.000
415.19	-0.000
415.39	-0.000
415.60	-0.000
415.80	-0.000
416.01	-0.000
416.21	-0.000
416.42	-0.000
416.62	-0.000
416.83	-0.000
417.03	-0.000
417.24	-0.000
417.44	-0.000
417.65	-0.000
417.86	-0.000
418.06	-0.000
418.27	-0.000
418.47	-0.000
418.68	-0.000
418.88	-0.000
419.09	-0.000
419.29	-0.000
419.50	-0.000
419.70	-0.000
419.91	-0.000
420.11	-0.000
420.32	-0.000
420.52	-0.000
420.73	-0.000
420.93	-0.000
421.14	-0.000
421.34	-0.000
421.55	-0.000
421.75	-0.000
421.96	-0.000
422.16	-0.000
422.37	-0.000
422.57	-0.000
422.78	-0.000
422.98	-0.000
423.19	-0.000
423.39	-0.000
423.60	-0.000
423.80	-0.000
424.01	-0.000
424.21	-0.000
424.42	-0.000
424.62	-0.000
424.83	-0.000
425.03	-0.000
425.23	-0.000
425.44	-0.000
425.64	-0.000
425.85	-0.000
426.05	-0.000
426.26	-0.000
426.46	-0.000
426.67	-0.000
426.87	-0.000
427.08	-0.000
427.28	-0.000
427.49	-0.000
427.69	-0.000
427.90	-0.000
428.10	-0.000
428.31	-0.000
428.51	-0.000
428.71	-0.000
428.92	-0.000
429.12	-0.000
429.33	-0.000
429.53	-0.000
429.74	-0.000
429.94	-0.000
430.15	-0.000
430.35	-0.000
430.56	-0.000
430.76	-0.000
430.96	-0.000
431.17	-0.000
431.37	-0.000
431.58	-0.000
431.78	-0.000
431.99	-0.000
432.19	-0.000
432.40	-0.000
432.60	-0.000
432.80	-0.000
433.01	-0.000
433.21	-0.000
433.42	-0.000
433.62	-0.000
433.83	-0.000
434.03	-0.000
434.23	-0.000
434.44	-0.000
434.64	-0.000
434.85	-0.000
435.05	-0.000
435.26	-0.000
435.46	-0.000
435.66	-0.000
435.87	-0.000
436.07	-0.000
436.28	-0.000
436.48	-0.000
436.69	-0.000
436.89	-0.000
437.09	-0.000
437.30	-0.000
437.50	-0.000
437.71	-0.000
437.91	-0.000
438.11	-0.000
438.32	-0.000
438.52	-0.000
438.73	-0.000
438.93	-0.000
439.13	-0.000
439.34	-0.000
439.54	-0.000
439.75	-0.000
439.95	-0.000
440.15	-0.000
440.36	-0.000
440.56	-0.000
440.77	-0.000
440.97	-0.000
441.17	-0.000
441.38	-0.000
441.58	-0.000
441.79	-0.000
441.99	-0.000
442.19	-0.000
442.40	-0.000
442.60	-0.000
442.81	-0.000
443.01	-0.000
443.21	-0.000
443.42	-0.000
443.62	-0.000
443.82	4.796
444.03	-0.000
444.23	-0.000
444.44	-0.000
444.64	-0.000
444.84	-0.000
445.05	-0.000
445.25	-0.000
445.45	-0.000
445.66	-0.000
445.86	-0.000
446.06	-0.000
446.27	-0.000
446.47	-0.000
446.68	-0.000
446.88	-0.000
447.08	-0.000
447.29	-0.000
447.49	-0.000
447.69	-0.000
447.90	-0.000
448.10	-0.000
448.30	-0.000
448.51	-0.000
448.71	-0.000
448.91	-0.000
449.12	-0.000
