SpectraSuite Data File
++++++++++++++++++++++++++++++++++++
Date: Fri Jun 19 15:38:53 CEST 2015
User: introlabs
Dark Spectrum Present: Yes
Reference Spectrum Present: Yes
Number of Sampled Component Spectra: 1
Spectrometers: USB4H08886
Integration Time (usec): 745692 (USB4H08886)
Spectra Averaged: 5 (USB4H08886)
Boxcar Smoothing: 5 (USB4H08886)
Correct for Electrical Dark: Yes (USB4H08886)
Strobe/Lamp Enabled: No (USB4H08886)
Correct for Detector Non-linearity: Yes (USB4H08886)
Correct for Stray Light: Yes (USB4H08886)
Number of Pixels in Processed Spectrum: 3648
>>>>>Begin Processed Spectral Data<<<<<
178.14	-0.000
178.36	-0.000
178.57	-0.000
178.79	-0.000
179.01	-0.000
179.22	-0.000
179.44	-0.000
179.65	-0.000
179.87	-0.000
180.08	-0.000
180.30	-0.000
180.52	-0.000
180.73	-0.000
180.95	-0.000
181.16	-0.000
181.38	-0.000
181.59	-0.000
181.81	-0.000
182.03	-0.000
182.24	-0.000
182.46	-0.000
182.67	-0.000
182.89	-0.000
183.10	-0.000
183.32	-0.000
183.54	-0.000
183.75	-0.000
183.97	-0.000
184.18	-0.000
184.40	-0.000
184.61	-0.000
184.83	-0.000
185.04	-0.000
185.26	-0.000
185.48	-0.000
185.69	-0.000
185.91	-0.000
186.12	-0.000
186.34	-0.000
186.55	-0.000
186.77	-0.000
186.98	-0.000
187.20	-0.000
187.42	-0.000
187.63	-0.000
187.85	-0.000
188.06	-0.000
188.28	-0.000
188.49	-0.000
188.71	-0.000
188.92	-0.000
189.14	-0.000
189.36	-0.000
189.57	-0.000
189.79	-0.000
190.00	-0.000
190.22	-0.000
190.43	-0.000
190.65	-0.000
190.86	-0.000
191.08	-0.000
191.29	-0.000
191.51	-0.000
191.72	-0.000
191.94	-0.000
192.16	-0.000
192.37	-0.000
192.59	-0.000
192.80	-0.000
193.02	-0.000
193.23	-0.000
193.45	-0.000
193.66	-0.000
193.88	-0.000
194.09	-0.000
194.31	-0.000
194.52	-0.000
194.74	-0.000
194.95	-0.000
195.17	-0.000
195.38	-0.000
195.60	-0.000
195.81	-0.000
196.03	-0.000
196.25	-0.000
196.46	-0.000
196.68	-0.000
196.89	-0.000
197.11	-0.000
197.32	-0.000
197.54	-0.000
197.75	-0.000
197.97	-0.000
198.18	-0.000
198.40	-0.000
198.61	-0.000
198.83	-0.000
199.04	-0.000
199.26	-0.000
199.47	-0.000
199.69	-0.000
199.90	-0.000
200.12	-0.000
200.33	-0.000
200.55	-0.000
200.76	-0.000
200.98	-0.000
201.19	-0.000
201.41	-0.000
201.62	-0.000
201.84	-0.000
202.05	-0.000
202.27	-0.000
202.48	-0.000
202.70	-0.000
202.91	-0.000
203.13	-0.000
203.34	-0.000
203.56	-0.000
203.77	-0.000
203.99	-0.000
204.20	-0.000
204.42	-0.000
204.63	-0.000
204.85	-0.000
205.06	-0.000
205.28	-0.000
205.49	-0.000
205.71	-0.000
205.92	-0.000
206.14	-0.000
206.35	-0.000
206.56	-0.000
206.78	-0.000
206.99	-0.000
207.21	-0.000
207.42	-0.000
207.64	-0.000
207.85	-0.000
208.07	-0.000
208.28	-0.000
208.50	-0.000
208.71	-0.000
208.93	-0.000
209.14	-0.000
209.36	-0.000
209.57	-0.000
209.79	-0.000
210.00	-0.000
210.22	-0.000
210.43	-0.000
210.64	-0.000
210.86	-0.000
211.07	-0.000
211.29	-0.000
211.50	-0.000
211.72	-0.000
211.93	-0.000
212.15	-0.000
212.36	-0.000
212.58	-0.000
212.79	-0.000
213.01	-0.000
213.22	-0.000
213.43	-0.000
213.65	-0.000
213.86	-0.000
214.08	-0.000
214.29	-0.000
214.51	-0.000
214.72	-0.000
214.94	-0.000
215.15	-0.000
215.36	-0.000
215.58	-0.000
215.79	-0.000
216.01	-0.000
216.22	-0.000
216.44	-0.000
216.65	-0.000
216.87	-0.000
217.08	-0.000
217.29	-0.000
217.51	-0.000
217.72	-0.000
217.94	-0.000
218.15	-0.000
218.37	-0.000
218.58	-0.000
218.80	-0.000
219.01	-0.000
219.22	-0.000
219.44	-0.000
219.65	-0.000
219.87	-0.000
220.08	-0.000
220.30	-0.000
220.51	-0.000
220.72	-0.000
220.94	-0.000
221.15	-0.000
221.37	-0.000
221.58	-0.000
221.79	-0.000
222.01	-0.000
222.22	-0.000
222.44	-0.000
222.65	-0.000
222.87	-0.000
223.08	-0.000
223.29	-0.000
223.51	-0.000
223.72	-0.000
223.94	-0.000
224.15	-0.000
224.36	-0.000
224.58	-0.000
224.79	-0.000
225.01	-0.000
225.22	-0.000
225.44	-0.000
225.65	-0.000
225.86	-0.000
226.08	-0.000
226.29	-0.000
226.51	-0.000
226.72	-0.000
226.93	-0.000
227.15	-0.000
227.36	-0.000
227.58	-0.000
227.79	-0.000
228.00	-0.000
228.22	-0.000
228.43	-0.000
228.65	-0.000
228.86	-0.000
229.07	-0.000
229.29	-0.000
229.50	-0.000
229.72	-0.000
229.93	-0.000
230.14	-0.000
230.36	-0.000
230.57	-0.000
230.78	-0.000
231.00	-0.000
231.21	-0.000
231.43	-0.000
231.64	-0.000
231.85	-0.000
232.07	-0.000
232.28	-0.000
232.50	-0.000
232.71	-0.000
232.92	-0.000
233.14	-0.000
233.35	-0.000
233.56	-0.000
233.78	-0.000
233.99	-0.000
234.21	-0.000
234.42	-0.000
234.63	-0.000
234.85	-0.000
235.06	-0.000
235.27	-0.000
235.49	-0.000
235.70	-0.000
235.91	-0.000
236.13	-0.000
236.34	-0.000
236.56	-0.000
236.77	-0.000
236.98	-0.000
237.20	-0.000
237.41	-0.000
237.62	-0.000
237.84	-0.000
238.05	-0.000
238.26	-0.000
238.48	-0.000
238.69	-0.000
238.91	-0.000
239.12	-0.000
239.33	-0.000
239.55	-0.000
239.76	-0.000
239.97	-0.000
240.19	-0.000
240.40	-0.000
240.61	-0.000
240.83	-0.000
241.04	-0.000
241.25	-0.000
241.47	-0.000
241.68	-0.000
241.89	-0.000
242.11	-0.000
242.32	-0.000
242.53	-0.000
242.75	-0.000
242.96	-0.000
243.17	-0.000
243.39	-0.000
243.60	-0.000
243.81	-0.000
244.03	-0.000
244.24	-0.000
244.45	-0.000
244.67	-0.000
244.88	-0.000
245.09	-0.000
245.31	-0.000
245.52	-0.000
245.73	-0.000
245.95	-0.000
246.16	-0.000
246.37	-0.000
246.59	-0.000
246.80	-0.000
247.01	-0.000
247.23	-0.000
247.44	-0.000
247.65	-0.000
247.87	-0.000
248.08	-0.000
248.29	-0.000
248.51	-0.000
248.72	-0.000
248.93	-0.000
249.15	-0.000
249.36	-0.000
249.57	-0.000
249.78	-0.000
250.00	-0.000
250.21	-0.000
250.42	-0.000
250.64	-0.000
250.85	-0.000
251.06	-0.000
251.28	-0.000
251.49	-0.000
251.70	-0.000
251.92	-0.000
252.13	-0.000
252.34	-0.000
252.55	-0.000
252.77	-0.000
252.98	-0.000
253.19	-0.000
253.41	-0.000
253.62	-0.000
253.83	-0.000
254.05	-0.000
254.26	-0.000
254.47	-0.000
254.68	-0.000
254.90	-0.000
255.11	-0.000
255.32	-0.000
255.54	-0.000
255.75	-0.000
255.96	-0.000
256.17	-0.000
256.39	-0.000
256.60	-0.000
256.81	-0.000
257.03	-0.000
257.24	-0.000
257.45	-0.000
257.66	-0.000
257.88	-0.000
258.09	-0.000
258.30	-0.000
258.51	-0.000
258.73	-0.000
258.94	-0.000
259.15	-0.000
259.37	-0.000
259.58	-0.000
259.79	-0.000
260.00	-0.000
260.22	-0.000
260.43	-0.000
260.64	-0.000
260.85	-0.000
261.07	-0.000
261.28	-0.000
261.49	-0.000
261.71	-0.000
261.92	-0.000
262.13	-0.000
262.34	-0.000
262.56	-0.000
262.77	-0.000
262.98	-0.000
263.19	-0.000
263.41	-0.000
263.62	-0.000
263.83	-0.000
264.04	-0.000
264.26	-0.000
264.47	-0.000
264.68	-0.000
264.89	-0.000
265.11	-0.000
265.32	-0.000
265.53	-0.000
265.74	-0.000
265.96	-0.000
266.17	-0.000
266.38	-0.000
266.59	-0.000
266.81	-0.000
267.02	-0.000
267.23	-0.000
267.44	-0.000
267.65	-0.000
267.87	-0.000
268.08	-0.000
268.29	-0.000
268.50	-0.000
268.72	-0.000
268.93	-0.000
269.14	-0.000
269.35	-0.000
269.57	-0.000
269.78	-0.000
269.99	-0.000
270.20	-0.000
270.41	-0.000
270.63	-0.000
270.84	-0.000
271.05	-0.000
271.26	-0.000
271.48	-0.000
271.69	-0.000
271.90	-0.000
272.11	-0.000
272.32	-0.000
272.54	-0.000
272.75	-0.000
272.96	-0.000
273.17	-0.000
273.39	-0.000
273.60	-0.000
273.81	-0.000
274.02	-0.000
274.23	-0.000
274.45	-0.000
274.66	-0.000
274.87	-0.000
275.08	-0.000
275.29	-0.000
275.51	-0.000
275.72	-0.000
275.93	-0.000
276.14	-0.000
276.35	-0.000
276.57	-0.000
276.78	-0.000
276.99	-0.000
277.20	-0.000
277.41	-0.000
277.63	-0.000
277.84	-0.000
278.05	-0.000
278.26	-0.000
278.47	-0.000
278.69	-0.000
278.90	-0.000
279.11	-0.000
279.32	-0.000
279.53	-0.000
279.74	-0.000
279.96	-0.000
280.17	-0.000
280.38	-0.000
280.59	-0.000
280.80	-0.000
281.02	-0.000
281.23	-0.000
281.44	-0.000
281.65	-0.000
281.86	-0.000
282.07	-0.000
282.29	-0.000
282.50	-0.000
282.71	-0.000
282.92	-0.000
283.13	-0.000
283.35	-0.000
283.56	-0.000
283.77	-0.000
283.98	-0.000
284.19	-0.000
284.40	-0.000
284.62	-0.000
284.83	-0.000
285.04	-0.000
285.25	-0.000
285.46	-0.000
285.67	-0.000
285.88	-0.000
286.10	-0.000
286.31	-0.000
286.52	-0.000
286.73	-0.000
286.94	-0.000
287.15	-0.000
287.37	-0.000
287.58	-0.000
287.79	-0.000
288.00	-0.000
288.21	-0.000
288.42	-0.000
288.63	-0.000
288.85	-0.000
289.06	-0.000
289.27	-0.000
289.48	-0.000
289.69	-0.000
289.90	-0.000
290.11	-0.000
290.33	-0.000
290.54	-0.000
290.75	-0.000
290.96	-0.000
291.17	-0.000
291.38	-0.000
291.59	-0.000
291.81	-0.000
292.02	-0.000
292.23	-0.000
292.44	-0.000
292.65	-0.000
292.86	-0.000
293.07	-0.000
293.28	3.292
293.50	-0.000
293.71	-0.000
293.92	-0.000
294.13	-0.000
294.34	-0.000
294.55	-0.000
294.76	-0.000
294.97	-0.000
295.19	-0.000
295.40	-0.000
295.61	-0.000
295.82	-0.000
296.03	2.820
296.24	3.241
296.45	1.985
296.66	1.720
296.87	1.740
297.09	1.789
297.30	1.973
297.51	1.665
297.72	1.650
297.93	1.718
298.14	1.686
298.35	1.646
298.56	1.618
298.77	1.712
298.99	1.687
299.20	1.665
299.41	1.650
299.62	1.605
299.83	1.596
300.04	1.544
300.25	1.540
300.46	1.569
300.67	1.553
300.88	1.514
301.10	1.522
301.31	1.587
301.52	1.528
301.73	1.481
301.94	1.484
302.15	1.495
302.36	1.455
302.57	1.398
302.78	1.405
302.99	1.436
303.20	1.452
303.41	1.368
303.63	1.351
303.84	1.357
304.05	1.351
304.26	1.300
304.47	1.302
304.68	1.305
304.89	1.297
305.10	1.264
305.31	1.252
305.52	1.292
305.73	1.290
305.94	1.253
306.15	1.244
306.37	1.265
306.58	1.270
306.79	1.246
307.00	1.267
307.21	1.306
307.42	1.299
307.63	1.268
307.84	1.239
308.05	1.271
308.26	1.276
308.47	1.258
308.68	1.251
308.89	1.251
309.10	1.249
309.31	1.210
309.52	1.201
309.73	1.211
309.95	1.208
310.16	1.181
310.37	1.169
310.58	1.181
310.79	1.181
311.00	1.182
311.21	1.183
311.42	1.182
311.63	1.179
311.84	1.162
312.05	1.162
312.26	1.182
312.47	1.193
312.68	1.171
312.89	1.156
313.10	1.161
313.31	1.133
313.52	1.139
313.73	1.139
313.94	1.141
314.15	1.125
314.36	1.106
314.57	1.100
314.78	1.088
314.99	1.083
315.21	1.072
315.42	1.077
315.63	1.089
315.84	1.066
316.05	1.054
316.26	1.060
316.47	1.075
316.68	1.073
316.89	1.054
317.10	1.070
317.31	1.074
317.52	1.078
317.73	1.058
317.94	1.058
318.15	1.097
318.36	1.097
318.57	1.081
318.78	1.071
318.99	1.102
319.20	1.099
319.41	1.069
319.62	1.073
319.83	1.083
320.04	1.079
320.25	1.068
320.46	1.035
320.67	1.037
320.88	1.034
321.09	1.021
321.30	1.007
321.51	1.024
321.72	1.022
321.93	1.006
322.14	0.997
322.35	1.021
322.56	1.024
322.77	1.012
322.98	1.022
323.19	1.028
323.40	1.035
323.61	1.016
323.82	1.008
324.03	1.013
324.24	1.012
324.45	1.000
324.66	0.983
324.87	0.977
325.08	0.978
325.29	0.961
325.50	0.955
325.71	0.960
325.92	0.967
326.13	0.954
326.34	0.956
326.55	0.962
326.76	0.962
326.97	0.951
327.18	0.947
327.39	0.970
327.60	0.971
327.80	0.970
328.01	0.967
328.22	0.967
328.43	0.971
328.64	0.959
328.85	0.964
329.06	0.965
329.27	0.965
329.48	0.961
329.69	0.942
329.90	0.952
330.11	0.945
330.32	0.941
330.53	0.934
330.74	0.933
330.95	0.932
331.16	0.918
331.37	0.926
331.58	0.926
331.79	0.927
332.00	0.919
332.21	0.912
332.42	0.916
332.63	0.907
332.83	0.904
333.04	0.906
333.25	0.918
333.46	0.918
333.67	0.905
333.88	0.907
334.09	0.915
334.30	0.913
334.51	0.905
334.72	0.901
334.93	0.904
335.14	0.902
335.35	0.895
335.56	0.890
335.77	0.898
335.98	0.897
336.18	0.891
336.39	0.883
336.60	0.887
336.81	0.885
337.02	0.884
337.23	0.889
337.44	0.891
337.65	0.892
337.86	0.882
338.07	0.876
338.28	0.879
338.49	0.877
338.70	0.871
338.91	0.877
339.11	0.883
339.32	0.881
339.53	0.869
339.74	0.867
339.95	0.863
340.16	0.862
340.37	0.857
340.58	0.855
340.79	0.857
341.00	0.857
341.21	0.847
341.41	0.847
341.62	0.847
341.83	0.848
342.04	0.844
342.25	0.854
342.46	0.858
342.67	0.856
342.88	0.850
343.09	0.850
343.30	0.857
343.50	0.860
343.71	0.851
343.92	0.849
344.13	0.853
344.34	0.852
344.55	0.837
344.76	0.835
344.97	0.840
345.18	0.840
345.38	0.837
345.59	0.832
345.80	0.831
346.01	0.829
346.22	0.826
346.43	0.820
346.64	0.828
346.85	0.827
347.06	0.821
347.26	0.820
347.47	0.823
347.68	0.819
347.89	0.815
348.10	0.810
348.31	0.815
348.52	0.814
348.73	0.812
348.93	0.809
349.14	0.812
349.35	0.810
349.56	0.804
349.77	0.799
349.98	0.804
350.19	0.802
350.39	0.798
350.60	0.794
350.81	0.808
351.02	0.807
351.23	0.803
351.44	0.805
351.65	0.808
351.86	0.806
352.06	0.805
352.27	0.805
352.48	0.806
352.69	0.806
352.90	0.801
353.11	0.789
353.31	0.795
353.52	0.792
353.73	0.785
353.94	0.787
354.15	0.791
354.36	0.790
354.57	0.781
354.77	0.783
354.98	0.783
355.19	0.781
355.40	0.781
355.61	0.786
355.82	0.790
356.02	0.789
356.23	0.782
356.44	0.785
356.65	0.788
356.86	0.789
357.07	0.784
357.27	0.787
357.48	0.789
357.69	0.785
357.90	0.771
358.11	0.767
358.32	0.770
358.52	0.773
358.73	0.763
358.94	0.765
359.15	0.770
359.36	0.770
359.56	0.766
359.77	0.763
359.98	0.769
360.19	0.769
360.40	0.767
360.61	0.768
360.81	0.766
361.02	0.767
361.23	0.759
361.44	0.757
361.65	0.758
361.85	0.757
362.06	0.755
362.27	0.757
362.48	0.757
362.69	0.759
362.89	0.752
363.10	0.754
363.31	0.758
363.52	0.761
363.73	0.757
363.93	0.757
364.14	0.759
364.35	0.760
364.56	0.751
364.77	0.752
364.97	0.754
365.18	0.756
365.39	0.751
365.60	0.747
365.81	0.749
366.01	0.748
366.22	0.744
366.43	0.743
366.64	0.745
366.84	0.751
367.05	0.748
367.26	0.747
367.47	0.748
367.68	0.747
367.88	0.744
368.09	0.741
368.30	0.744
368.51	0.744
368.71	0.743
368.92	0.748
369.13	0.745
369.34	0.745
369.55	0.745
369.75	0.745
369.96	0.751
370.17	0.751
370.38	0.749
370.58	0.748
370.79	0.753
371.00	0.751
371.21	0.743
371.41	0.748
371.62	0.751
371.83	0.746
372.04	0.744
372.24	0.739
372.45	0.740
372.66	0.740
372.87	0.738
373.07	0.735
373.28	0.735
373.49	0.738
373.70	0.729
373.90	0.728
374.11	0.738
374.32	0.737
374.53	0.737
374.73	0.737
374.94	0.739
375.15	0.738
375.36	0.736
375.56	0.745
375.77	0.746
375.98	0.746
376.19	0.743
376.39	0.737
376.60	0.740
376.81	0.739
377.02	0.737
377.22	0.737
377.43	0.737
377.64	0.737
377.84	0.728
378.05	0.733
378.26	0.738
378.47	0.738
378.67	0.735
378.88	0.732
379.09	0.733
379.30	0.733
379.50	0.731
379.71	0.733
379.92	0.736
380.12	0.735
380.33	0.727
380.54	0.724
380.75	0.730
380.95	0.730
381.16	0.729
381.37	0.729
381.57	0.731
381.78	0.731
381.99	0.732
382.20	0.731
382.40	0.734
382.61	0.734
382.82	0.732
383.02	0.726
383.23	0.729
383.44	0.728
383.64	0.727
383.85	0.729
384.06	0.732
384.27	0.729
384.47	0.728
384.68	0.729
384.89	0.735
385.09	0.735
385.30	0.734
385.51	0.733
385.71	0.736
385.92	0.737
386.13	0.736
386.33	0.738
386.54	0.739
386.75	0.738
386.95	0.734
387.16	0.729
387.37	0.731
387.58	0.730
387.78	0.729
387.99	0.727
388.20	0.728
388.40	0.725
388.61	0.721
388.82	0.724
389.02	0.726
389.23	0.727
389.44	0.726
389.64	0.726
389.85	0.737
390.06	0.737
390.26	0.738
390.47	0.738
390.68	0.741
390.88	0.739
391.09	0.735
391.30	0.735
391.50	0.734
391.71	0.734
391.92	0.731
392.12	0.723
392.33	0.723
392.53	0.722
392.74	0.722
392.95	0.722
393.15	0.724
393.36	0.726
393.57	0.725
393.77	0.728
393.98	0.730
394.19	0.731
394.39	0.730
394.60	0.732
394.81	0.734
395.01	0.732
395.22	0.730
395.43	0.730
395.63	0.734
395.84	0.735
396.04	0.731
396.25	0.732
396.46	0.734
396.66	0.733
396.87	0.731
397.08	0.728
397.28	0.731
397.49	0.732
397.69	0.729
397.90	0.725
398.11	0.726
398.31	0.727
398.52	0.724
398.73	0.725
398.93	0.724
399.14	0.723
399.34	0.722
399.55	0.723
399.76	0.723
399.96	0.725
400.17	0.724
400.37	0.722
400.58	0.728
400.79	0.730
400.99	0.728
401.20	0.733
401.41	0.735
401.61	0.735
401.82	0.741
402.02	0.741
402.23	0.741
402.44	0.741
402.64	0.741
402.85	0.736
403.05	0.735
403.26	0.734
403.47	0.729
403.67	0.728
403.88	0.729
404.08	0.723
404.29	0.722
404.50	0.721
404.70	0.721
404.91	0.721
405.11	0.718
405.32	0.718
405.52	0.718
405.73	0.718
405.94	0.716
406.14	0.719
406.35	0.721
406.55	0.721
406.76	0.719
406.97	0.720
407.17	0.722
407.38	0.722
407.58	0.720
407.79	0.723
407.99	0.725
408.20	0.726
408.41	0.722
408.61	0.720
408.82	0.720
409.02	0.721
409.23	0.719
409.43	0.718
409.64	0.719
409.84	0.719
410.05	0.715
410.26	0.714
410.46	0.713
410.67	0.713
410.87	0.714
411.08	0.716
411.28	0.717
411.49	0.719
411.69	0.717
411.90	0.719
412.11	0.720
412.31	0.721
412.52	0.720
412.72	0.721
412.93	0.721
413.13	0.720
413.34	0.716
413.54	0.718
413.75	0.720
413.95	0.720
414.16	0.717
414.37	0.719
414.57	0.719
414.78	0.722
414.98	0.720
415.19	0.722
415.39	0.718
415.60	0.720
415.80	0.719
416.01	0.716
416.21	0.718
416.42	0.718
416.62	0.714
416.83	0.714
417.03	0.714
417.24	0.714
417.44	0.711
417.65	0.710
417.86	0.711
418.06	0.709
418.27	0.708
418.47	0.709
418.68	0.709
418.88	0.709
419.09	0.708
419.29	0.708
419.50	0.709
419.70	0.709
419.91	0.707
420.11	0.705
420.32	0.707
420.52	0.707
420.73	0.706
420.93	0.708
421.14	0.710
421.34	0.708
421.55	0.705
421.75	0.705
421.96	0.706
422.16	0.706
422.37	0.705
422.57	0.702
422.78	0.703
422.98	0.700
423.19	0.697
423.39	0.695
423.60	0.699
423.80	0.700
424.01	0.699
424.21	0.701
424.42	0.702
424.62	0.702
424.83	0.701
425.03	0.701
425.23	0.703
425.44	0.703
425.64	0.703
425.85	0.702
426.05	0.702
426.26	0.703
426.46	0.699
426.67	0.698
426.87	0.703
427.08	0.703
427.28	0.701
427.49	0.703
427.69	0.704
427.90	0.703
428.10	0.700
428.31	0.700
428.51	0.701
428.71	0.701
428.92	0.702
429.12	0.699
429.33	0.700
429.53	0.704
429.74	0.708
429.94	0.708
430.15	0.706
430.35	0.706
430.56	0.703
430.76	0.702
430.96	0.703
431.17	0.700
431.37	0.697
431.58	0.696
431.78	0.692
431.99	0.685
432.19	0.687
432.40	0.689
432.60	0.689
432.80	0.692
433.01	0.691
433.21	0.691
433.42	0.693
433.62	0.694
433.83	0.693
434.03	0.695
434.23	0.697
434.44	0.696
434.64	0.693
434.85	0.698
435.05	0.699
435.26	0.699
435.46	0.698
435.66	0.697
435.87	0.698
436.07	0.698
436.28	0.694
436.48	0.692
436.69	0.691
436.89	0.691
437.09	0.685
437.30	0.684
437.50	0.684
437.71	0.696
437.91	0.695
438.11	0.695
438.32	0.699
438.52	0.699
438.73	0.699
438.93	0.697
439.13	0.696
439.34	0.699
439.54	0.697
439.75	0.697
439.95	0.687
440.15	0.692
440.36	0.691
440.56	0.688
440.77	0.689
440.97	0.689
441.17	0.688
441.38	0.689
441.58	0.687
441.79	0.686
441.99	0.685
442.19	0.683
442.40	0.680
442.60	0.680
442.81	0.678
443.01	0.678
443.21	0.678
443.42	0.678
443.62	0.676
443.82	0.676
444.03	0.677
444.23	0.677
444.44	0.677
444.64	0.676
444.84	0.677
445.05	0.677
445.25	0.675
445.45	0.675
445.66	0.677
445.86	0.677
446.06	0.679
446.27	0.677
446.47	0.680
446.68	0.678
446.88	0.677
447.08	0.676
447.29	0.678
447.49	0.678
447.69	0.678
447.90	0.677
448.10	0.680
448.30	0.677
448.51	0.679
448.71	0.676
448.91	0.678
449.12	0.677
449.32	0.679
449.52	0.677
449.73	0.681
449.93	0.679
450.14	0.680
450.34	0.679
450.54	0.681
450.75	0.678
450.95	0.677
451.15	0.676
451.36	0.679
451.56	0.675
451.76	0.675
451.97	0.671
452.17	0.672
452.37	0.671
452.58	0.667
452.78	0.667
452.98	0.669
453.19	0.669
453.39	0.670
453.59	0.668
453.79	0.669
454.00	0.668
454.20	0.667
454.40	0.668
454.61	0.670
454.81	0.671
455.01	0.669
455.22	0.669
455.42	0.671
455.62	0.669
455.83	0.669
456.03	0.672
456.23	0.673
456.44	0.675
456.64	0.673
456.84	0.673
457.04	0.674
457.25	0.673
457.45	0.671
457.65	0.669
457.86	0.670
458.06	0.669
458.26	0.664
458.47	0.664
458.67	0.664
458.87	0.664
459.07	0.662
459.28	0.664
459.48	0.666
459.68	0.665
459.89	0.665
